 # E (eV)   ldos(E)    ldos0(E)
  -5.0000    0.2566E+001    0.2054E+000
  -4.9900    0.2552E+001    0.5539E+001
  -4.9800    0.2539E+001    0.3880E+001
  -4.9700    0.2526E+001    0.4568E+000
  -4.9600    0.2514E+001    0.1088E+001
  -4.9499    0.2504E+001    0.3506E+001
  -4.9399    0.2494E+001    0.2710E+001
  -4.9299    0.2485E+001    0.2938E+001
  -4.9199    0.2477E+001    0.2088E+001
  -4.9099    0.2470E+001    0.1033E+000
  -4.8999    0.2464E+001    0.1064E+000
  -4.8899    0.2459E+001    0.3084E+001
  -4.8799    0.2454E+001    0.1341E+000
  -4.8699    0.2451E+001    0.2392E+001
  -4.8599    0.2448E+001    0.7639E+000
  -4.8498    0.2446E+001    0.2834E+001
  -4.8398    0.2445E+001    0.6022E+000
  -4.8298    0.2445E+001    0.6467E+001
  -4.8198    0.2445E+001    0.1564E+001
  -4.8098    0.2445E+001    0.2825E+001
  -4.7998    0.2447E+001    0.4052E+001
  -4.7898    0.2448E+001    0.1531E+001
  -4.7798    0.2450E+001    0.3388E+001
  -4.7698    0.2453E+001    0.1413E+001
  -4.7598    0.2456E+001    0.3542E+000
  -4.7497    0.2459E+001    0.2993E+001
  -4.7397    0.2462E+001    0.2957E+001
  -4.7297    0.2466E+001    0.3378E+001
  -4.7197    0.2469E+001    0.6085E+000
  -4.7097    0.2473E+001    0.5217E+001
  -4.6997    0.2478E+001    0.4108E+000
  -4.6897    0.2482E+001    0.4775E+001
  -4.6797    0.2486E+001    0.7925E+001
  -4.6697    0.2491E+001    0.6150E+000
  -4.6597    0.2495E+001    0.3020E+001
  -4.6496    0.2500E+001    0.1150E+001
  -4.6396    0.2504E+001    0.5295E+000
  -4.6296    0.2509E+001    0.5655E+001
  -4.6196    0.2514E+001    0.2607E+001
  -4.6096    0.2518E+001    0.1734E+001
  -4.5996    0.2523E+001    0.1280E+001
  -4.5896    0.2528E+001    0.2863E+001
  -4.5796    0.2532E+001    0.1168E+001
  -4.5696    0.2537E+001    0.2460E+001
  -4.5596    0.2542E+001    0.5812E+000
  -4.5495    0.2547E+001    0.7438E+001
  -4.5395    0.2551E+001    0.4213E+001
  -4.5295    0.2556E+001    0.4740E+001
  -4.5195    0.2560E+001    0.1678E+001
  -4.5095    0.2565E+001    0.2784E+001
  -4.4995    0.2570E+001    0.2237E+001
  -4.4895    0.2574E+001    0.1001E+001
  -4.4795    0.2579E+001    0.3277E+001
  -4.4695    0.2583E+001    0.4229E+001
  -4.4595    0.2588E+001    0.1642E+001
  -4.4494    0.2592E+001    0.1352E+001
  -4.4394    0.2597E+001    0.3961E+001
  -4.4294    0.2601E+001    0.7814E+000
  -4.4194    0.2605E+001    0.4210E+001
  -4.4094    0.2609E+001    0.8120E+001
  -4.3994    0.2613E+001    0.1080E+001
  -4.3894    0.2617E+001    0.2910E+001
  -4.3794    0.2620E+001    0.4922E+000
  -4.3694    0.2624E+001    0.1639E+001
  -4.3594    0.2626E+001    0.3185E+001
  -4.3493    0.2629E+001    0.3954E+001
  -4.3393    0.2631E+001    0.5008E+001
  -4.3293    0.2632E+001    0.1499E+001
  -4.3193    0.2633E+001    0.1439E+001
  -4.3093    0.2634E+001    0.7856E+000
  -4.2993    0.2633E+001    0.1269E+001
  -4.2893    0.2632E+001    0.7444E+001
  -4.2793    0.2630E+001    0.4594E+001
  -4.2693    0.2628E+001    0.6611E+000
  -4.2593    0.2624E+001    0.2865E+001
  -4.2492    0.2620E+001    0.2158E+001
  -4.2392    0.2615E+001    0.6095E+001
  -4.2292    0.2609E+001    0.3085E+001
  -4.2192    0.2602E+001    0.2499E+001
  -4.2092    0.2594E+001    0.2885E+001
  -4.1992    0.2585E+001    0.8242E+001
  -4.1892    0.2576E+001    0.1756E+001
  -4.1792    0.2565E+001    0.2904E+001
  -4.1692    0.2555E+001    0.7204E+000
  -4.1592    0.2543E+001    0.1434E+001
  -4.1491    0.2531E+001    0.3510E+001
  -4.1391    0.2518E+001    0.1364E+001
  -4.1291    0.2505E+001    0.2883E+001
  -4.1191    0.2492E+001    0.3954E+001
  -4.1091    0.2478E+001    0.4760E+001
  -4.0991    0.2464E+001    0.1464E+001
  -4.0891    0.2450E+001    0.4247E+001
  -4.0791    0.2436E+001    0.3521E+000
  -4.0691    0.2423E+001    0.7065E+000
  -4.0591    0.2409E+001    0.2905E+001
  -4.0490    0.2395E+001    0.3575E+001
  -4.0390    0.2382E+001    0.3342E+001
  -4.0290    0.2369E+001    0.7675E+000
  -4.0190    0.2356E+001    0.3593E+001
  -4.0090    0.2343E+001    0.6715E+001
  -3.9990    0.2331E+001    0.8851E+000
  -3.9890    0.2320E+001    0.3828E+000
  -3.9790    0.2309E+001    0.1637E+001
  -3.9690    0.2298E+001    0.3140E+001
  -3.9590    0.2288E+001    0.1790E+001
  -3.9489    0.2278E+001    0.1631E+001
  -3.9389    0.2269E+001    0.2777E+001
  -3.9289    0.2260E+001    0.2399E+001
  -3.9189    0.2252E+001    0.1165E+001
  -3.9089    0.2244E+001    0.3638E+000
  -3.8989    0.2237E+001    0.3806E+001
  -3.8889    0.2230E+001    0.4018E+001
  -3.8789    0.2224E+001    0.1213E+001
  -3.8689    0.2218E+001    0.4855E+000
  -3.8589    0.2213E+001    0.3772E+001
  -3.8488    0.2208E+001    0.1565E+001
  -3.8388    0.2203E+001    0.2904E+001
  -3.8288    0.2200E+001    0.2505E+001
  -3.8188    0.2196E+001    0.1252E+001
  -3.8088    0.2193E+001    0.2284E+001
  -3.7988    0.2191E+001    0.1496E+001
  -3.7888    0.2188E+001    0.8508E+000
  -3.7788    0.2186E+001    0.4937E+000
  -3.7688    0.2185E+001    0.3838E+000
  -3.7588    0.2184E+001    0.2962E+001
  -3.7487    0.2183E+001    0.5329E+000
  -3.7387    0.2182E+001    0.4148E+001
  -3.7287    0.2182E+001    0.2147E+001
  -3.7187    0.2181E+001    0.5989E+001
  -3.7087    0.2181E+001    0.5799E+000
  -3.6987    0.2181E+001    0.1759E+001
  -3.6887    0.2181E+001    0.1702E+001
  -3.6787    0.2181E+001    0.1040E+001
  -3.6687    0.2181E+001    0.7023E+000
  -3.6587    0.2181E+001    0.2831E+001
  -3.6486    0.2181E+001    0.4171E+001
  -3.6386    0.2181E+001    0.3011E+001
  -3.6286    0.2180E+001    0.4594E+001
  -3.6186    0.2179E+001    0.1724E+001
  -3.6086    0.2178E+001    0.4548E+000
  -3.5986    0.2177E+001    0.1727E+001
  -3.5886    0.2175E+001    0.3690E+001
  -3.5786    0.2173E+001    0.4806E+001
  -3.5686    0.2170E+001    0.2664E+001
  -3.5586    0.2167E+001    0.1649E+001
  -3.5485    0.2164E+001    0.4406E+001
  -3.5385    0.2159E+001    0.2518E+001
  -3.5285    0.2155E+001    0.7567E+001
  -3.5185    0.2149E+001    0.5706E+000
  -3.5085    0.2143E+001    0.5734E+001
  -3.4985    0.2136E+001    0.5298E+000
  -3.4885    0.2129E+001    0.3389E+001
  -3.4785    0.2121E+001    0.1115E+001
  -3.4685    0.2112E+001    0.3486E+001
  -3.4585    0.2103E+001    0.5516E+000
  -3.4484    0.2094E+001    0.3382E+001
  -3.4384    0.2083E+001    0.7305E+000
  -3.4284    0.2073E+001    0.1813E+001
  -3.4184    0.2061E+001    0.4227E+001
  -3.4084    0.2050E+001    0.3502E+001
  -3.3984    0.2038E+001    0.1100E+001
  -3.3884    0.2025E+001    0.2863E+001
  -3.3784    0.2013E+001    0.7165E+000
  -3.3684    0.2000E+001    0.2295E+001
  -3.3584    0.1986E+001    0.3914E+001
  -3.3483    0.1973E+001    0.3253E+000
  -3.3383    0.1959E+001    0.1100E+001
  -3.3283    0.1945E+001    0.8924E+000
  -3.3183    0.1932E+001    0.1542E+001
  -3.3083    0.1918E+001    0.1204E+001
  -3.2983    0.1904E+001    0.2453E+001
  -3.2883    0.1890E+001    0.2763E+000
  -3.2783    0.1876E+001    0.2880E+000
  -3.2683    0.1862E+001    0.7920E+000
  -3.2583    0.1849E+001    0.4005E+001
  -3.2482    0.1836E+001    0.9274E+000
  -3.2382    0.1823E+001    0.8813E+000
  -3.2282    0.1810E+001    0.2608E+001
  -3.2182    0.1797E+001    0.7921E+000
  -3.2082    0.1786E+001    0.3707E+001
  -3.1982    0.1774E+001    0.1721E+001
  -3.1882    0.1763E+001    0.2243E+000
  -3.1782    0.1753E+001    0.5857E+000
  -3.1682    0.1743E+001    0.1219E+001
  -3.1582    0.1734E+001    0.7258E-001
  -3.1481    0.1725E+001    0.5485E-001
  -3.1381    0.1718E+001    0.1010E+000
  -3.1281    0.1711E+001    0.1701E+001
  -3.1181    0.1704E+001    0.3203E+000
  -3.1081    0.1699E+001    0.1002E+001
  -3.0981    0.1695E+001    0.2485E+000
  -3.0881    0.1691E+001    0.6045E+000
  -3.0781    0.1688E+001    0.1488E+000
  -3.0681    0.1686E+001    0.3094E+001
  -3.0581    0.1685E+001    0.3313E+001
  -3.0480    0.1685E+001    0.1332E+000
  -3.0380    0.1686E+001    0.2777E+001
  -3.0280    0.1687E+001    0.8200E-001
  -3.0180    0.1689E+001    0.6830E-001
  -3.0080    0.1692E+001    0.8324E+000
  -2.9980    0.1696E+001    0.1301E+000
  -2.9880    0.1700E+001    0.1418E+000
  -2.9780    0.1705E+001    0.9160E-001
  -2.9680    0.1711E+001    0.4927E+000
  -2.9580    0.1717E+001    0.1514E+001
  -2.9479    0.1723E+001    0.2167E+001
  -2.9379    0.1730E+001    0.2656E+000
  -2.9279    0.1737E+001    0.3703E+001
  -2.9179    0.1743E+001    0.1637E+000
  -2.9079    0.1750E+001    0.2091E+000
  -2.8979    0.1757E+001    0.2607E+001
  -2.8879    0.1763E+001    0.4167E+001
  -2.8779    0.1770E+001    0.4443E+000
  -2.8679    0.1776E+001    0.4856E+001
  -2.8579    0.1781E+001    0.8944E+000
  -2.8478    0.1786E+001    0.2719E+001
  -2.8378    0.1791E+001    0.3526E+001
  -2.8278    0.1795E+001    0.8780E+001
  -2.8178    0.1799E+001    0.3310E+001
  -2.8078    0.1802E+001    0.2725E+001
  -2.7978    0.1805E+001    0.2220E+001
  -2.7878    0.1807E+001    0.2260E+001
  -2.7778    0.1809E+001    0.4635E+001
  -2.7678    0.1811E+001    0.6617E+001
  -2.7578    0.1813E+001    0.7612E+000
  -2.7477    0.1814E+001    0.2641E+000
  -2.7377    0.1816E+001    0.1705E+001
  -2.7277    0.1818E+001    0.1709E+000
  -2.7177    0.1820E+001    0.1442E+001
  -2.7077    0.1822E+001    0.2794E+000
  -2.6977    0.1825E+001    0.5448E-001
  -2.6877    0.1828E+001    0.4234E-001
  -2.6777    0.1832E+001    0.4661E-001
  -2.6677    0.1836E+001    0.8190E-001
  -2.6577    0.1841E+001    0.2095E+001
  -2.6476    0.1846E+001    0.2724E+001
  -2.6376    0.1852E+001    0.1498E+000
  -2.6276    0.1858E+001    0.1840E+001
  -2.6176    0.1864E+001    0.1327E+000
  -2.6076    0.1872E+001    0.2962E+001
  -2.5976    0.1879E+001    0.1037E+001
  -2.5876    0.1886E+001    0.2415E+001
  -2.5776    0.1894E+001    0.3930E+001
  -2.5676    0.1902E+001    0.1366E+001
  -2.5576    0.1910E+001    0.5835E+001
  -2.5475    0.1918E+001    0.8768E+000
  -2.5375    0.1925E+001    0.2675E+000
  -2.5275    0.1932E+001    0.8055E+000
  -2.5175    0.1939E+001    0.5333E+000
  -2.5075    0.1946E+001    0.3789E+001
  -2.4975    0.1952E+001    0.2625E+001
  -2.4875    0.1957E+001    0.2015E+001
  -2.4775    0.1962E+001    0.3805E+001
  -2.4675    0.1967E+001    0.7416E+000
  -2.4575    0.1970E+001    0.1617E+001
  -2.4474    0.1973E+001    0.9747E+001
  -2.4374    0.1976E+001    0.8540E+001
  -2.4274    0.1977E+001    0.4411E+001
  -2.4174    0.1978E+001    0.3530E+000
  -2.4074    0.1978E+001    0.3422E+001
  -2.3974    0.1977E+001    0.1027E+001
  -2.3874    0.1976E+001    0.4703E+001
  -2.3774    0.1973E+001    0.3418E+001
  -2.3674    0.1970E+001    0.1035E+001
  -2.3574    0.1966E+001    0.1440E+001
  -2.3473    0.1960E+001    0.1690E+001
  -2.3373    0.1954E+001    0.2468E+001
  -2.3273    0.1947E+001    0.1611E+001
  -2.3173    0.1939E+001    0.3993E+001
  -2.3073    0.1930E+001    0.5511E+001
  -2.2973    0.1920E+001    0.2569E+001
  -2.2873    0.1910E+001    0.3259E+001
  -2.2773    0.1898E+001    0.6580E+001
  -2.2673    0.1885E+001    0.1236E+001
  -2.2573    0.1871E+001    0.2774E+001
  -2.2472    0.1857E+001    0.1264E+001
  -2.2372    0.1841E+001    0.4558E+001
  -2.2272    0.1825E+001    0.2011E+001
  -2.2172    0.1807E+001    0.5592E+001
  -2.2072    0.1790E+001    0.2372E+001
  -2.1972    0.1771E+001    0.3672E+001
  -2.1872    0.1752E+001    0.8742E+000
  -2.1772    0.1732E+001    0.1979E+000
  -2.1672    0.1711E+001    0.4308E+000
  -2.1572    0.1690E+001    0.2353E+000
  -2.1471    0.1669E+001    0.2755E+001
  -2.1371    0.1647E+001    0.3038E+001
  -2.1271    0.1626E+001    0.1720E+001
  -2.1171    0.1604E+001    0.3980E+000
  -2.1071    0.1581E+001    0.1257E+001
  -2.0971    0.1559E+001    0.5845E+000
  -2.0871    0.1537E+001    0.3467E+000
  -2.0771    0.1515E+001    0.3053E+001
  -2.0671    0.1493E+001    0.1622E+000
  -2.0571    0.1471E+001    0.1880E+001
  -2.0470    0.1450E+001    0.2852E+001
  -2.0370    0.1429E+001    0.5104E+000
  -2.0270    0.1408E+001    0.1004E+000
  -2.0170    0.1387E+001    0.3820E+000
  -2.0070    0.1367E+001    0.1302E+001
  -1.9970    0.1347E+001    0.3473E+000
  -1.9870    0.1328E+001    0.8626E-001
  -1.9770    0.1309E+001    0.7436E-001
  -1.9670    0.1291E+001    0.4025E+000
  -1.9570    0.1273E+001    0.2208E+001
  -1.9469    0.1255E+001    0.1377E+000
  -1.9369    0.1239E+001    0.2632E+000
  -1.9269    0.1222E+001    0.1542E+000
  -1.9169    0.1207E+001    0.4551E-001
  -1.9069    0.1192E+001    0.5020E-001
  -1.8969    0.1177E+001    0.3355E+000
  -1.8869    0.1163E+001    0.1688E+000
  -1.8769    0.1149E+001    0.2937E+001
  -1.8669    0.1137E+001    0.1954E+000
  -1.8569    0.1124E+001    0.2532E+001
  -1.8468    0.1112E+001    0.2673E+000
  -1.8368    0.1101E+001    0.7647E-001
  -1.8268    0.1090E+001    0.3756E-001
  -1.8168    0.1080E+001    0.6837E-001
  -1.8068    0.1071E+001    0.2834E+001
  -1.7968    0.1062E+001    0.7046E-001
  -1.7868    0.1053E+001    0.1857E+000
  -1.7768    0.1045E+001    0.2087E+000
  -1.7668    0.1038E+001    0.1918E+000
  -1.7568    0.1031E+001    0.2129E+000
  -1.7467    0.1025E+001    0.1040E+000
  -1.7367    0.1019E+001    0.7851E+000
  -1.7267    0.1014E+001    0.5124E-001
  -1.7167    0.1009E+001    0.5706E-001
  -1.7067    0.1005E+001    0.2665E+001
  -1.6967    0.1001E+001    0.7731E-001
  -1.6867    0.9982E+000    0.4103E+000
  -1.6767    0.9958E+000    0.5501E-001
  -1.6667    0.9940E+000    0.3727E-001
  -1.6567    0.9927E+000    0.1615E+000
  -1.6466    0.9921E+000    0.2187E+000
  -1.6366    0.9920E+000    0.4751E-001
  -1.6266    0.9926E+000    0.1064E+000
  -1.6166    0.9938E+000    0.6375E+000
  -1.6066    0.9957E+000    0.4792E+000
  -1.5966    0.9983E+000    0.1536E+001
  -1.5866    0.1001E+001    0.4940E-001
  -1.5766    0.1005E+001    0.2304E-001
  -1.5666    0.1010E+001    0.1800E-001
  -1.5566    0.1015E+001    0.1909E-001
  -1.5465    0.1022E+001    0.3076E-001
  -1.5365    0.1028E+001    0.1889E+000
  -1.5265    0.1036E+001    0.1738E+000
  -1.5165    0.1045E+001    0.3862E-001
  -1.5065    0.1054E+001    0.5143E-001
  -1.4965    0.1064E+001    0.2172E+001
  -1.4865    0.1075E+001    0.7753E+000
  -1.4765    0.1086E+001    0.1105E+000
  -1.4665    0.1099E+001    0.1101E+001
  -1.4565    0.1112E+001    0.4583E-001
  -1.4464    0.1126E+001    0.2480E-001
  -1.4364    0.1141E+001    0.2356E-001
  -1.4264    0.1157E+001    0.3769E-001
  -1.4164    0.1173E+001    0.3560E+000
  -1.4064    0.1190E+001    0.1106E+000
  -1.3964    0.1208E+001    0.3166E-001
  -1.3864    0.1226E+001    0.2538E-001
  -1.3764    0.1244E+001    0.2940E-001
  -1.3664    0.1262E+001    0.5422E-001
  -1.3564    0.1281E+001    0.1703E+001
  -1.3463    0.1299E+001    0.9181E-001
  -1.3363    0.1318E+001    0.6816E-001
  -1.3263    0.1335E+001    0.3382E+000
  -1.3163    0.1353E+001    0.3275E+000
  -1.3063    0.1369E+001    0.9308E+000
  -1.2963    0.1384E+001    0.2223E+000
  -1.2863    0.1399E+001    0.5990E+001
  -1.2763    0.1411E+001    0.2480E+001
  -1.2663    0.1423E+001    0.6872E+001
  -1.2563    0.1432E+001    0.1746E+001
  -1.2462    0.1440E+001    0.6436E+001
  -1.2362    0.1446E+001    0.5995E+001
  -1.2262    0.1450E+001    0.1033E+002
  -1.2162    0.1453E+001    0.2614E+001
  -1.2062    0.1453E+001    0.1164E+001
  -1.1962    0.1451E+001    0.5797E+001
  -1.1862    0.1447E+001    0.2965E+001
  -1.1762    0.1442E+001    0.4862E+001
  -1.1662    0.1434E+001    0.4696E+001
  -1.1562    0.1426E+001    0.4035E+001
  -1.1461    0.1415E+001    0.5930E+000
  -1.1361    0.1403E+001    0.2532E+001
  -1.1261    0.1391E+001    0.1643E+001
  -1.1161    0.1377E+001    0.5891E+000
  -1.1061    0.1362E+001    0.2953E+001
  -1.0961    0.1346E+001    0.2501E+000
  -1.0861    0.1330E+001    0.8632E+000
  -1.0761    0.1313E+001    0.6170E+000
  -1.0661    0.1295E+001    0.2508E+001
  -1.0561    0.1278E+001    0.1219E+000
  -1.0460    0.1260E+001    0.3115E+000
  -1.0360    0.1242E+001    0.2305E+001
  -1.0260    0.1223E+001    0.2060E+001
  -1.0160    0.1205E+001    0.1088E+000
  -1.0060    0.1187E+001    0.1457E+000
  -0.9960    0.1169E+001    0.1444E+001
  -0.9860    0.1151E+001    0.1613E+001
  -0.9760    0.1133E+001    0.1452E+000
  -0.9660    0.1116E+001    0.3269E+001
  -0.9560    0.1098E+001    0.1074E+000
  -0.9459    0.1081E+001    0.3990E+000
  -0.9359    0.1064E+001    0.2779E+000
  -0.9259    0.1048E+001    0.2629E+000
  -0.9159    0.1031E+001    0.7120E-001
  -0.9059    0.1015E+001    0.5460E+000
  -0.8959    0.9993E+000    0.3101E+000
  -0.8859    0.9838E+000    0.4526E+000
  -0.8759    0.9686E+000    0.6395E-001
  -0.8659    0.9537E+000    0.7269E-001
  -0.8559    0.9391E+000    0.2223E+001
  -0.8458    0.9248E+000    0.3288E+000
  -0.8358    0.9107E+000    0.7181E+000
  -0.8258    0.8969E+000    0.2676E+000
  -0.8158    0.8834E+000    0.3594E+000
  -0.8058    0.8702E+000    0.2328E+000
  -0.7958    0.8572E+000    0.5945E-001
  -0.7858    0.8445E+000    0.2243E+000
  -0.7758    0.8320E+000    0.1557E+000
  -0.7658    0.8198E+000    0.3739E-001
  -0.7558    0.8079E+000    0.3601E-001
  -0.7457    0.7961E+000    0.1091E+000
  -0.7357    0.7846E+000    0.1291E+001
  -0.7257    0.7734E+000    0.1810E+000
  -0.7157    0.7623E+000    0.1756E+001
  -0.7057    0.7515E+000    0.5221E-001
  -0.6957    0.7409E+000    0.2984E-001
  -0.6857    0.7305E+000    0.3884E-001
  -0.6757    0.7203E+000    0.1784E+000
  -0.6657    0.7102E+000    0.5295E+000
  -0.6557    0.7004E+000    0.1874E+000
  -0.6456    0.6907E+000    0.4849E+000
  -0.6356    0.6813E+000    0.5199E-001
  -0.6256    0.6720E+000    0.2729E+000
  -0.6156    0.6628E+000    0.1296E+000
  -0.6056    0.6539E+000    0.4019E-001
  -0.5956    0.6451E+000    0.4887E+000
  -0.5856    0.6364E+000    0.4599E-001
  -0.5756    0.6279E+000    0.2006E-001
  -0.5656    0.6196E+000    0.2342E-001
  -0.5556    0.6114E+000    0.1033E+000
  -0.5455    0.6034E+000    0.1348E+000
  -0.5355    0.5955E+000    0.2312E+001
  -0.5255    0.5878E+000    0.7110E-001
  -0.5155    0.5802E+000    0.7155E-001
  -0.5055    0.5727E+000    0.1961E+000
  -0.4955    0.5654E+000    0.9415E-001
  -0.4855    0.5582E+000    0.9310E+000
  -0.4755    0.5511E+000    0.4251E-001
  -0.4655    0.5442E+000    0.5229E-001
  -0.4555    0.5373E+000    0.3496E+000
  -0.4454    0.5306E+000    0.2245E-001
  -0.4354    0.5240E+000    0.1368E-001
  -0.4254    0.5176E+000    0.1534E-001
  -0.4154    0.5112E+000    0.3308E-001
  -0.4054    0.5050E+000    0.6366E+000
  -0.3954    0.4989E+000    0.8036E-001
  -0.3854    0.4929E+000    0.2173E-001
  -0.3754    0.4871E+000    0.2136E-001
  -0.3654    0.4813E+000    0.1746E+000
  -0.3554    0.4757E+000    0.5872E-001
  -0.3453    0.4702E+000    0.1647E-001
  -0.3353    0.4648E+000    0.1680E-001
  -0.3253    0.4595E+000    0.4305E-001
  -0.3153    0.4543E+000    0.2768E+001
  -0.3053    0.4493E+000    0.5453E-001
  -0.2953    0.4443E+000    0.1867E-001
  -0.2853    0.4395E+000    0.2203E-001
  -0.2753    0.4348E+000    0.3959E+000
  -0.2653    0.4302E+000    0.3833E-001
  -0.2553    0.4257E+000    0.1052E-001
  -0.2452    0.4214E+000    0.6386E-002
  -0.2352    0.4172E+000    0.5119E-002
  -0.2252    0.4131E+000    0.4788E-002
  -0.2152    0.4091E+000    0.5097E-002
  -0.2052    0.4053E+000    0.6348E-002
  -0.1952    0.4016E+000    0.1018E-001
  -0.1852    0.3980E+000    0.2836E-001
  -0.1752    0.3946E+000    0.1852E+001
  -0.1652    0.3913E+000    0.4906E+000
  -0.1552    0.3881E+000    0.2227E-001
  -0.1451    0.3851E+000    0.8722E-002
  -0.1351    0.3822E+000    0.5297E-002
  -0.1251    0.3795E+000    0.3909E-002
  -0.1151    0.3769E+000    0.3210E-002
  -0.1051    0.3745E+000    0.2816E-002
  -0.0951    0.3722E+000    0.2583E-002
  -0.0851    0.3701E+000    0.2454E-002
  -0.0751    0.3682E+000    0.2407E-002
  -0.0651    0.3664E+000    0.2451E-002
  -0.0551    0.3648E+000    0.2640E-002
  -0.0450    0.3633E+000    0.3162E-002
  -0.0350    0.3621E+000    0.4871E-002
  -0.0250    0.3610E+000    0.1709E-001
  -0.0150    0.3600E+000    0.1023E+000
  -0.0050    0.3593E+000    0.1549E-001
   0.0050    0.3587E+000    0.4671E-002
   0.0150    0.3582E+000    0.3267E-002
   0.0250    0.3580E+000    0.3095E-002
   0.0350    0.3579E+000    0.4190E-002
   0.0450    0.3579E+000    0.2950E-001
   0.0551    0.3582E+000    0.1021E-001
   0.0651    0.3586E+000    0.3493E-002
   0.0751    0.3591E+000    0.2819E-002
   0.0851    0.3598E+000    0.2779E-002
   0.0951    0.3607E+000    0.3025E-002
   0.1051    0.3617E+000    0.3637E-002
   0.1151    0.3628E+000    0.5126E-002
   0.1251    0.3641E+000    0.1009E-001
   0.1351    0.3655E+000    0.5443E-001
   0.1451    0.3671E+000    0.1489E+000
   0.1552    0.3688E+000    0.1406E-001
   0.1652    0.3706E+000    0.7184E-002
   0.1752    0.3725E+000    0.6542E-002
   0.1852    0.3745E+000    0.9400E-002
   0.1952    0.3767E+000    0.3076E-001
   0.2052    0.3789E+000    0.8711E+000
   0.2152    0.3813E+000    0.2040E-001
   0.2252    0.3838E+000    0.9551E-002
   0.2352    0.3863E+000    0.1006E-001
   0.2452    0.3890E+000    0.2464E-001
   0.2553    0.3917E+000    0.1791E+001
   0.2653    0.3946E+000    0.2656E-001
   0.2753    0.3975E+000    0.1200E-001
   0.2853    0.4005E+000    0.1579E-001
   0.2953    0.4036E+000    0.1097E+000
   0.3053    0.4068E+000    0.7525E-001
   0.3153    0.4101E+000    0.1625E-001
   0.3253    0.4134E+000    0.1866E-001
   0.3353    0.4168E+000    0.1834E+000
   0.3453    0.4203E+000    0.5756E-001
   0.3554    0.4239E+000    0.1547E-001
   0.3654    0.4275E+000    0.1479E-001
   0.3754    0.4312E+000    0.3037E-001
   0.3854    0.4349E+000    0.1267E+001
   0.3954    0.4387E+000    0.7487E+000
   0.4054    0.4426E+000    0.8653E-001
   0.4154    0.4466E+000    0.2077E-001
   0.4254    0.4506E+000    0.1223E-001
   0.4354    0.4546E+000    0.1112E-001
   0.4454    0.4588E+000    0.1661E-001
   0.4555    0.4630E+000    0.1122E+000
   0.4655    0.4672E+000    0.8538E-001
   0.4755    0.4715E+000    0.1842E-001
   0.4855    0.4759E+000    0.1802E-001
   0.4955    0.4803E+000    0.3778E-001
   0.5055    0.4848E+000    0.9626E+000
   0.5155    0.4893E+000    0.6482E+000
   0.5255    0.4939E+000    0.6461E-001
   0.5355    0.4986E+000    0.4292E-001
   0.5455    0.5033E+000    0.5792E+000
   0.5556    0.5080E+000    0.1193E+000
   0.5656    0.5128E+000    0.4321E+000
   0.5756    0.5177E+000    0.5516E-001
   0.5856    0.5226E+000    0.1752E-001
   0.5956    0.5276E+000    0.1392E-001
   0.6056    0.5327E+000    0.1788E-001
   0.6156    0.5377E+000    0.6656E-001
   0.6256    0.5429E+000    0.2190E+000
   0.6356    0.5481E+000    0.4628E-001
   0.6456    0.5534E+000    0.7192E+000
   0.6557    0.5587E+000    0.1422E+000
   0.6657    0.5641E+000    0.5344E+000
   0.6757    0.5695E+000    0.9271E-001
   0.6857    0.5750E+000    0.1621E+001
   0.6957    0.5805E+000    0.1335E+000
   0.7057    0.5861E+000    0.1374E+001
   0.7157    0.5918E+000    0.4331E-001
   0.7257    0.5975E+000    0.2382E-001
   0.7357    0.6033E+000    0.2964E-001
   0.7457    0.6091E+000    0.3891E+000
   0.7558    0.6151E+000    0.6510E+000
   0.7658    0.6210E+000    0.8603E-001
   0.7758    0.6271E+000    0.8185E-001
   0.7858    0.6332E+000    0.3488E+001
   0.7958    0.6394E+000    0.8588E-001
   0.8058    0.6456E+000    0.2948E-001
   0.8158    0.6519E+000    0.2485E-001
   0.8258    0.6583E+000    0.3944E-001
   0.8358    0.6648E+000    0.7009E+000
   0.8458    0.6713E+000    0.2545E+000
   0.8559    0.6779E+000    0.3510E+000
   0.8659    0.6846E+000    0.1603E+001
   0.8759    0.6913E+000    0.1196E+001
   0.8859    0.6982E+000    0.7986E-001
   0.8959    0.7051E+000    0.3255E-001
   0.9059    0.7121E+000    0.2985E-001
   0.9159    0.7191E+000    0.5699E-001
   0.9259    0.7263E+000    0.1949E+001
   0.9359    0.7336E+000    0.1534E+000
   0.9459    0.7409E+000    0.1980E+000
   0.9560    0.7484E+000    0.8160E-001
   0.9660    0.7559E+000    0.7825E-001
   0.9760    0.7636E+000    0.7934E+000
   0.9860    0.7713E+000    0.6056E-001
   0.9960    0.7792E+000    0.7463E+000
   1.0060    0.7871E+000    0.2422E+000
   1.0160    0.7952E+000    0.2093E+001
   1.0260    0.8033E+000    0.3994E+000
   1.0360    0.8116E+000    0.9301E-001
   1.0460    0.8200E+000    0.1879E+001
   1.0561    0.8285E+000    0.9908E-001
   1.0661    0.8371E+000    0.1866E+000
   1.0761    0.8459E+000    0.2017E+001
   1.0861    0.8548E+000    0.9427E-001
   1.0961    0.8638E+000    0.5486E-001
   1.1061    0.8729E+000    0.6284E+000
   1.1161    0.8823E+000    0.5792E+000
   1.1261    0.8917E+000    0.1908E+001
   1.1361    0.9013E+000    0.7191E-001
   1.1461    0.9111E+000    0.4602E-001
   1.1562    0.9211E+000    0.2831E+000
   1.1662    0.9312E+000    0.1289E+000
   1.1762    0.9414E+000    0.3146E+001
   1.1862    0.9519E+000    0.1714E+001
   1.1962    0.9625E+000    0.1771E+001
   1.2062    0.9732E+000    0.1594E+001
   1.2162    0.9842E+000    0.2159E+001
   1.2262    0.9953E+000    0.1211E+001
   1.2362    0.1007E+001    0.1558E+000
   1.2462    0.1018E+001    0.1969E+001
   1.2563    0.1030E+001    0.2119E+001
   1.2663    0.1042E+001    0.9103E-001
   1.2763    0.1054E+001    0.5644E+000
   1.2863    0.1066E+001    0.8581E+000
   1.2963    0.1079E+001    0.2425E+001
   1.3063    0.1092E+001    0.9311E-001
   1.3163    0.1105E+001    0.1560E+001
   1.3263    0.1118E+001    0.1357E+000
   1.3363    0.1132E+001    0.1541E+001
   1.3463    0.1145E+001    0.1746E+000
   1.3564    0.1159E+001    0.1750E+000
   1.3664    0.1173E+001    0.4650E+000
   1.3764    0.1188E+001    0.4310E+000
   1.3864    0.1202E+001    0.4669E+001
   1.3964    0.1217E+001    0.3831E+000
   1.4064    0.1232E+001    0.2146E+001
   1.4164    0.1247E+001    0.2473E+000
   1.4264    0.1262E+001    0.1620E+000
   1.4364    0.1277E+001    0.1002E+001
   1.4464    0.1292E+001    0.1808E+000
   1.4565    0.1308E+001    0.1739E+000
   1.4665    0.1323E+001    0.2205E+001
   1.4765    0.1339E+001    0.1193E+000
   1.4865    0.1354E+001    0.7169E+000
   1.4965    0.1369E+001    0.1709E+001
   1.5065    0.1385E+001    0.2222E+001
   1.5165    0.1400E+001    0.1098E+001
   1.5265    0.1415E+001    0.2956E+001
   1.5365    0.1430E+001    0.2844E+001
   1.5465    0.1445E+001    0.9437E+000
   1.5566    0.1459E+001    0.1298E+001
   1.5666    0.1473E+001    0.1688E+001
   1.5766    0.1487E+001    0.4703E+001
   1.5866    0.1501E+001    0.6765E+000
   1.5966    0.1514E+001    0.1468E+001
   1.6066    0.1527E+001    0.1021E+001
   1.6166    0.1539E+001    0.7801E+000
   1.6266    0.1551E+001    0.1090E+001
   1.6366    0.1563E+001    0.5204E+001
   1.6466    0.1574E+001    0.1514E+001
   1.6567    0.1585E+001    0.1559E+000
   1.6667    0.1595E+001    0.5843E+000
   1.6767    0.1605E+001    0.1748E+001
   1.6867    0.1614E+001    0.1491E+000
   1.6967    0.1623E+001    0.7980E+000
   1.7067    0.1631E+001    0.1772E+001
   1.7167    0.1639E+001    0.4510E+000
   1.7267    0.1646E+001    0.1958E+001
   1.7367    0.1653E+001    0.3011E+001
   1.7467    0.1659E+001    0.6086E+001
   1.7568    0.1664E+001    0.4534E+001
   1.7668    0.1668E+001    0.3887E+001
   1.7768    0.1672E+001    0.2186E+001
   1.7868    0.1676E+001    0.9332E+000
   1.7968    0.1678E+001    0.3987E+001
   1.8068    0.1681E+001    0.2150E+001
   1.8168    0.1682E+001    0.5108E+000
   1.8268    0.1683E+001    0.9471E+000
   1.8368    0.1684E+001    0.4716E+000
   1.8468    0.1684E+001    0.5229E+001
   1.8569    0.1683E+001    0.3123E+001
   1.8669    0.1682E+001    0.4761E+001
   1.8769    0.1681E+001    0.1729E+000
   1.8869    0.1680E+001    0.1062E+000
   1.8969    0.1678E+001    0.1907E+000
   1.9069    0.1676E+001    0.5959E+001
   1.9169    0.1673E+001    0.1138E+001
   1.9269    0.1671E+001    0.6582E+000
   1.9369    0.1667E+001    0.1321E+001
   1.9469    0.1664E+001    0.8275E+001
   1.9570    0.1660E+001    0.8246E+001
   1.9670    0.1656E+001    0.1192E+001
   1.9770    0.1652E+001    0.5611E+000
   1.9870    0.1648E+001    0.3853E+001
   1.9970    0.1643E+001    0.1736E+001
   2.0070    0.1638E+001    0.1623E+001
   2.0170    0.1632E+001    0.2357E+001
   2.0270    0.1627E+001    0.1581E+001
   2.0370    0.1620E+001    0.3809E+001
   2.0470    0.1614E+001    0.5221E+000
   2.0571    0.1608E+001    0.4725E+000
   2.0671    0.1601E+001    0.1500E+001
   2.0771    0.1594E+001    0.2752E+001
   2.0871    0.1587E+001    0.2807E+001
   2.0971    0.1579E+001    0.2683E+000
   2.1071    0.1571E+001    0.4078E+001
   2.1171    0.1564E+001    0.5480E+000
   2.1271    0.1556E+001    0.4823E+001
   2.1371    0.1548E+001    0.1950E+001
   2.1471    0.1540E+001    0.2228E+000
   2.1572    0.1532E+001    0.1014E+001
   2.1672    0.1524E+001    0.2511E+001
   2.1772    0.1516E+001    0.3755E+001
   2.1872    0.1508E+001    0.3116E+000
   2.1972    0.1500E+001    0.3996E+001
   2.2072    0.1493E+001    0.1373E+000
   2.2172    0.1485E+001    0.1060E+000
   2.2272    0.1478E+001    0.2973E+001
   2.2372    0.1471E+001    0.1318E+000
   2.2472    0.1464E+001    0.1621E+001
   2.2573    0.1457E+001    0.2684E+000
   2.2673    0.1450E+001    0.3171E+001
   2.2773    0.1444E+001    0.5491E+000
   2.2873    0.1438E+001    0.3343E+001
   2.2973    0.1432E+001    0.1691E+000
   2.3073    0.1426E+001    0.3755E+000
   2.3173    0.1420E+001    0.3281E+001
   2.3273    0.1414E+001    0.1306E+001
   2.3373    0.1409E+001    0.2136E+001
   2.3473    0.1403E+001    0.4647E+000
   2.3574    0.1398E+001    0.1182E+001
   2.3674    0.1392E+001    0.1689E+001
   2.3774    0.1387E+001    0.6433E+000
   2.3874    0.1381E+001    0.3040E+001
   2.3974    0.1376E+001    0.1905E+000
   2.4074    0.1370E+001    0.2834E+001
   2.4174    0.1365E+001    0.3045E+001
   2.4274    0.1360E+001    0.2177E+001
   2.4374    0.1354E+001    0.1675E+000
   2.4474    0.1349E+001    0.5186E+000
   2.4575    0.1344E+001    0.1606E+001
   2.4675    0.1339E+001    0.3346E+000
   2.4775    0.1334E+001    0.1064E+001
   2.4875    0.1330E+001    0.9908E-001
   2.4975    0.1325E+001    0.9351E-001
   2.5075    0.1321E+001    0.1027E+001
   2.5175    0.1317E+001    0.2140E+001
   2.5275    0.1313E+001    0.2140E+001
   2.5375    0.1310E+001    0.2771E+001
   2.5475    0.1306E+001    0.9250E-001
   2.5576    0.1303E+001    0.1190E+000
   2.5676    0.1301E+001    0.1045E+001
   2.5776    0.1298E+001    0.3196E+001
   2.5876    0.1296E+001    0.7957E-001
   2.5976    0.1294E+001    0.5120E-001
   2.6076    0.1292E+001    0.6835E-001
   2.6176    0.1290E+001    0.3051E+000
   2.6276    0.1289E+001    0.5642E+000
   2.6376    0.1287E+001    0.8066E+000
   2.6476    0.1286E+001    0.2208E+001
   2.6577    0.1285E+001    0.3723E+001
   2.6677    0.1284E+001    0.3320E+000
   2.6777    0.1282E+001    0.8416E+000
   2.6877    0.1281E+001    0.1228E+001
   2.6977    0.1280E+001    0.1461E+000
   2.7077    0.1279E+001    0.3203E+001
   2.7177    0.1277E+001    0.4728E+000
   2.7277    0.1276E+001    0.2837E+001
   2.7377    0.1274E+001    0.1073E+001
   2.7477    0.1272E+001    0.3135E+001
   2.7578    0.1270E+001    0.4064E+000
   2.7678    0.1268E+001    0.1306E+000
   2.7778    0.1266E+001    0.2825E+001
   2.7878    0.1264E+001    0.1144E+001
   2.7978    0.1262E+001    0.1199E+000
   2.8078    0.1259E+001    0.1696E+001
   2.8178    0.1257E+001    0.2516E+000
   2.8278    0.1254E+001    0.4445E+000
   2.8378    0.1252E+001    0.1724E+001
   2.8478    0.1249E+001    0.7008E+000
   2.8579    0.1246E+001    0.3260E+001
   2.8679    0.1243E+001    0.6768E+000
   2.8779    0.1240E+001    0.7743E+000
   2.8879    0.1236E+001    0.4210E+000
   2.8979    0.1233E+001    0.4575E+000
   2.9079    0.1230E+001    0.1255E+000
   2.9179    0.1227E+001    0.3145E+001
   2.9279    0.1224E+001    0.2341E+001
   2.9379    0.1220E+001    0.1837E+001
   2.9479    0.1217E+001    0.8705E-001
   2.9580    0.1214E+001    0.6554E-001
   2.9680    0.1211E+001    0.1673E+000
   2.9780    0.1207E+001    0.5239E+000
   2.9880    0.1204E+001    0.2934E+001
   2.9980    0.1201E+001    0.1161E+001
   3.0080    0.1198E+001    0.2350E+001
   3.0180    0.1195E+001    0.1817E+000
   3.0280    0.1192E+001    0.2746E+001
   3.0380    0.1188E+001    0.1381E+001
   3.0480    0.1185E+001    0.2965E+001
   3.0581    0.1182E+001    0.7238E+000
   3.0681    0.1179E+001    0.1385E+001
   3.0781    0.1176E+001    0.3018E+001
   3.0881    0.1173E+001    0.1383E+000
   3.0981    0.1170E+001    0.1578E+000
   3.1081    0.1166E+001    0.1460E+001
   3.1181    0.1163E+001    0.2722E+001
   3.1281    0.1160E+001    0.1988E+000
   3.1381    0.1157E+001    0.4147E+000
   3.1481    0.1154E+001    0.7119E-001
   3.1582    0.1151E+001    0.1741E+000
   3.1682    0.1149E+001    0.4826E+000
   3.1782    0.1146E+001    0.9490E-001
   3.1882    0.1143E+001    0.9779E+000
   3.1982    0.1140E+001    0.6498E+000
   3.2082    0.1137E+001    0.1334E+001
   3.2182    0.1135E+001    0.4361E+001
   3.2282    0.1132E+001    0.1631E+001
   3.2382    0.1129E+001    0.3091E+000
   3.2482    0.1127E+001    0.1090E+001
   3.2583    0.1124E+001    0.1302E+000
   3.2683    0.1121E+001    0.1105E+000
   3.2783    0.1118E+001    0.3268E+001
   3.2883    0.1116E+001    0.1225E+001
   3.2983    0.1113E+001    0.9056E+000
   3.3083    0.1110E+001    0.1072E+001
   3.3183    0.1108E+001    0.3437E+000
   3.3283    0.1105E+001    0.1711E+000
   3.3383    0.1102E+001    0.8436E-001
   3.3483    0.1100E+001    0.1445E+001
   3.3584    0.1097E+001    0.9540E+000
   3.3684    0.1095E+001    0.2184E+000
   3.3784    0.1092E+001    0.1300E+001
   3.3884    0.1090E+001    0.4007E+001
   3.3984    0.1087E+001    0.1365E+001
   3.4084    0.1085E+001    0.1475E+000
   3.4184    0.1083E+001    0.2728E+000
   3.4284    0.1080E+001    0.2542E+001
   3.4384    0.1078E+001    0.1012E+000
   3.4484    0.1076E+001    0.1641E+000
   3.4585    0.1073E+001    0.4976E+001
   3.4685    0.1071E+001    0.1176E+001
   3.4785    0.1069E+001    0.4496E+000
   3.4885    0.1066E+001    0.1259E+001
   3.4985    0.1064E+001    0.3507E+001
   3.5085    0.1061E+001    0.8227E+000
   3.5185    0.1059E+001    0.1260E+000
   3.5285    0.1057E+001    0.7297E-001
   3.5385    0.1054E+001    0.1915E+000
   3.5485    0.1052E+001    0.4132E+001
   3.5586    0.1050E+001    0.1537E+000
   3.5686    0.1047E+001    0.7110E+000
   3.5786    0.1045E+001    0.1612E+000
   3.5886    0.1043E+001    0.6891E-001
   3.5986    0.1041E+001    0.2099E+000
   3.6086    0.1038E+001    0.1213E+001
   3.6186    0.1036E+001    0.3136E+000
   3.6286    0.1034E+001    0.1656E+000
   3.6386    0.1032E+001    0.6144E+000
   3.6486    0.1030E+001    0.1965E+001
   3.6587    0.1028E+001    0.1667E+000
   3.6687    0.1025E+001    0.2477E+000
   3.6787    0.1023E+001    0.6691E+000
   3.6887    0.1021E+001    0.2775E+001
   3.6987    0.1019E+001    0.1363E+000
   3.7087    0.1017E+001    0.1540E+000
   3.7187    0.1015E+001    0.1824E+001
   3.7287    0.1013E+001    0.3587E+001
   3.7387    0.1010E+001    0.1223E+001
   3.7487    0.1008E+001    0.5221E+000
   3.7588    0.1006E+001    0.6381E-001
   3.7688    0.1004E+001    0.4968E-001
   3.7788    0.1002E+001    0.1249E+000
   3.7888    0.1000E+001    0.2210E+001
   3.7988    0.9985E+000    0.2878E+000
   3.8088    0.9967E+000    0.2870E+001
   3.8188    0.9949E+000    0.1367E+000
   3.8288    0.9931E+000    0.2008E+001
   3.8388    0.9914E+000    0.4498E+000
   3.8488    0.9898E+000    0.1125E+001
   3.8589    0.9881E+000    0.1416E+000
   3.8689    0.9865E+000    0.3202E+001
   3.8789    0.9850E+000    0.1958E+000
   3.8889    0.9834E+000    0.2582E+001
   3.8989    0.9819E+000    0.2985E+000
   3.9089    0.9804E+000    0.2360E+000
   3.9189    0.9789E+000    0.3557E+001
   3.9289    0.9775E+000    0.3014E+000
   3.9389    0.9760E+000    0.6254E-001
   3.9489    0.9746E+000    0.4944E-001
   3.9590    0.9731E+000    0.8514E-001
   3.9690    0.9717E+000    0.2020E+001
   3.9790    0.9703E+000    0.1575E+001
   3.9890    0.9688E+000    0.2574E+000
   3.9990    0.9674E+000    0.4565E+000
   4.0090    0.9659E+000    0.5153E+001
   4.0190    0.9644E+000    0.1262E+000
   4.0290    0.9629E+000    0.6944E-001
   4.0390    0.9614E+000    0.1899E+000
   4.0490    0.9598E+000    0.3505E+000
   4.0591    0.9582E+000    0.5427E+001
   4.0691    0.9565E+000    0.4076E+000
   4.0791    0.9549E+000    0.1687E+000
   4.0891    0.9531E+000    0.3267E+001
   4.0991    0.9514E+000    0.2860E+001
   4.1091    0.9496E+000    0.1114E+000
   4.1191    0.9477E+000    0.2151E+000
   4.1291    0.9459E+000    0.2209E+000
   4.1391    0.9439E+000    0.7226E-001
   4.1491    0.9420E+000    0.4191E+000
   4.1592    0.9400E+000    0.5212E+000
   4.1692    0.9380E+000    0.2832E+001
   4.1792    0.9360E+000    0.2117E+001
   4.1892    0.9339E+000    0.9463E+000
   4.1992    0.9318E+000    0.1994E+000
   4.2092    0.9298E+000    0.6553E-001
   4.2192    0.9277E+000    0.8647E-001
   4.2292    0.9256E+000    0.2390E+001
   4.2392    0.9235E+000    0.7260E-001
   4.2492    0.9214E+000    0.9980E-001
   4.2593    0.9192E+000    0.2451E+001
   4.2693    0.9171E+000    0.1686E+000
   4.2793    0.9150E+000    0.1298E+001
   4.2893    0.9129E+000    0.1085E+000
   4.2993    0.9108E+000    0.1209E+000
   4.3093    0.9086E+000    0.2357E+000
   4.3193    0.9065E+000    0.2059E+001
   4.3293    0.9043E+000    0.2198E+001
   4.3393    0.9021E+000    0.1933E+001
   4.3493    0.9000E+000    0.2166E+000
   4.3594    0.8978E+000    0.6077E+001
   4.3694    0.8956E+000    0.1627E+001
   4.3794    0.8934E+000    0.1043E+001
   4.3894    0.8913E+000    0.1253E+000
   4.3994    0.8891E+000    0.1869E+000
   4.4094    0.8870E+000    0.4282E-001
   4.4194    0.8850E+000    0.5286E-001
   4.4294    0.8830E+000    0.6184E+000
   4.4394    0.8810E+000    0.1632E+000
   4.4494    0.8791E+000    0.2791E+001
   4.4595    0.8772E+000    0.2057E+001
   4.4695    0.8754E+000    0.8524E-001
   4.4795    0.8736E+000    0.4927E-001
   4.4895    0.8718E+000    0.1550E+000
   4.4995    0.8701E+000    0.3886E+000
   4.5095    0.8684E+000    0.1722E+000
   4.5195    0.8667E+000    0.9648E-001
   4.5295    0.8650E+000    0.4743E+000
   4.5395    0.8633E+000    0.3154E+001
   4.5495    0.8616E+000    0.1511E+001
   4.5596    0.8599E+000    0.4778E+000
   4.5696    0.8582E+000    0.1459E+000
   4.5796    0.8565E+000    0.2244E+000
   4.5896    0.8549E+000    0.7624E-001
   4.5996    0.8532E+000    0.2708E+001
   4.6096    0.8516E+000    0.1068E+000
   4.6196    0.8500E+000    0.5666E+000
   4.6296    0.8485E+000    0.1019E+001
   4.6396    0.8470E+000    0.2220E+000
   4.6496    0.8456E+000    0.4370E-001
   4.6597    0.8442E+000    0.2703E-001
   4.6697    0.8428E+000    0.2440E-001
   4.6797    0.8415E+000    0.2913E-001
   4.6897    0.8402E+000    0.5365E-001
   4.6997    0.8389E+000    0.1020E+001
   4.7097    0.8376E+000    0.1698E+000
   4.7197    0.8363E+000    0.3805E+001
   4.7297    0.8351E+000    0.1090E+001
   4.7397    0.8338E+000    0.1477E+001
   4.7497    0.8324E+000    0.3810E+000
   4.7598    0.8311E+000    0.9570E+000
   4.7698    0.8297E+000    0.1874E+001
   4.7798    0.8283E+000    0.9622E+000
   4.7898    0.8269E+000    0.1864E+000
   4.7998    0.8255E+000    0.2560E+000
   4.8098    0.8241E+000    0.4976E-001
   4.8198    0.8227E+000    0.7169E-001
   4.8298    0.8213E+000    0.2169E+000
   4.8398    0.8200E+000    0.4367E-001
   4.8498    0.8186E+000    0.9821E-001
   4.8599    0.8174E+000    0.1224E+001
   4.8699    0.8162E+000    0.1214E+000
   4.8799    0.8151E+000    0.2039E+001
   4.8899    0.8140E+000    0.1057E+001
   4.8999    0.8130E+000    0.2653E+000
   4.9099    0.8121E+000    0.1252E+000
   4.9199    0.8112E+000    0.3923E+001
   4.9299    0.8104E+000    0.1222E+000
   4.9399    0.8097E+000    0.5584E-001
   4.9499    0.8090E+000    0.1252E+000
   4.9600    0.8084E+000    0.1505E+001
   4.9700    0.8079E+000    0.9698E-001
   4.9800    0.8074E+000    0.1631E+000
   4.9900    0.8070E+000    0.1350E+001
   5.0000    0.8066E+000    0.4022E+000
