 # E (eV)   ldos(E)
  -5.0000    0.1100E-002
  -4.9900    0.2702E-001
  -4.9800    0.1003E-001
  -4.9700    0.1657E-002
  -4.9600    0.1573E-002
  -4.9499    0.3710E-002
  -4.9399    0.1276E-001
  -4.9299    0.6650E-003
  -4.9199    0.3791E-003
  -4.9099    0.3184E-003
  -4.8999    0.2935E-003
  -4.8899    0.6141E-003
  -4.8799    0.2734E-003
  -4.8699    0.4718E-003
  -4.8599    0.3044E-003
  -4.8498    0.1334E-002
  -4.8398    0.8874E-003
  -4.8298    0.1768E-002
  -4.8198    0.1975E-002
  -4.8098    0.2415E-002
  -4.7998    0.1054E-002
  -4.7898    0.1142E-001
  -4.7798    0.1662E-001
  -4.7698    0.3425E-002
  -4.7598    0.1387E-002
  -4.7497    0.6158E-002
  -4.7397    0.3834E-001
  -4.7297    0.2100E-001
  -4.7197    0.1757E-002
  -4.7097    0.7938E-002
  -4.6997    0.2667E-002
  -4.6897    0.2750E-001
  -4.6797    0.8336E-002
  -4.6697    0.3296E-002
  -4.6597    0.2612E-001
  -4.6496    0.2029E-001
  -4.6396    0.2841E-002
  -4.6296    0.1257E+000
  -4.6196    0.8317E-002
  -4.6096    0.1080E-001
  -4.5996    0.1842E-001
  -4.5896    0.2474E-001
  -4.5796    0.3638E-002
  -4.5696    0.3059E-001
  -4.5596    0.7134E-002
  -4.5495    0.6151E-001
  -4.5395    0.9347E-002
  -4.5295    0.1070E+000
  -4.5195    0.5622E-002
  -4.5095    0.1512E-001
  -4.4995    0.9153E-001
  -4.4895    0.7749E-002
  -4.4795    0.1101E+000
  -4.4695    0.3899E-001
  -4.4595    0.2808E-001
  -4.4494    0.2865E-001
  -4.4394    0.9233E-001
  -4.4294    0.2115E-001
  -4.4194    0.8619E-002
  -4.4094    0.1162E-001
  -4.3994    0.3299E-002
  -4.3894    0.4031E-001
  -4.3794    0.1969E-001
  -4.3694    0.5368E-001
  -4.3594    0.1971E-001
  -4.3493    0.1010E+000
  -4.3393    0.8560E-001
  -4.3293    0.4141E-001
  -4.3193    0.3645E-001
  -4.3093    0.3584E-001
  -4.2993    0.4315E-001
  -4.2893    0.1337E+000
  -4.2793    0.1603E+000
  -4.2693    0.2029E-001
  -4.2593    0.1782E+000
  -4.2492    0.3373E-001
  -4.2392    0.3758E+000
  -4.2292    0.7990E-001
  -4.2192    0.2590E+000
  -4.2092    0.2643E+000
  -4.1992    0.2440E+000
  -4.1892    0.8968E-001
  -4.1792    0.1025E+000
  -4.1692    0.2702E-001
  -4.1592    0.1543E-001
  -4.1491    0.1010E+000
  -4.1391    0.8286E-002
  -4.1291    0.8874E-001
  -4.1191    0.1624E-001
  -4.1091    0.4959E-001
  -4.0991    0.3801E-002
  -4.0891    0.7162E-001
  -4.0791    0.2543E-002
  -4.0691    0.3629E-002
  -4.0591    0.2036E-002
  -4.0490    0.1146E-001
  -4.0390    0.1553E-002
  -4.0290    0.2190E-002
  -4.0190    0.7188E-001
  -4.0090    0.4914E-001
  -3.9990    0.2087E-002
  -3.9890    0.4503E-002
  -3.9790    0.4278E-002
  -3.9690    0.3045E-002
  -3.9590    0.6114E-002
  -3.9489    0.2475E-002
  -3.9389    0.1136E-001
  -3.9289    0.1743E-002
  -3.9189    0.1584E-002
  -3.9089    0.4638E-002
  -3.8989    0.1291E-001
  -3.8889    0.1161E+000
  -3.8789    0.3785E-002
  -3.8689    0.1256E-002
  -3.8589    0.4823E-002
  -3.8488    0.3148E-002
  -3.8388    0.1870E-002
  -3.8288    0.4289E-002
  -3.8188    0.4268E-002
  -3.8088    0.1844E-001
  -3.7988    0.2176E-001
  -3.7888    0.2609E-002
  -3.7788    0.1224E-001
  -3.7688    0.4425E-002
  -3.7588    0.7348E-002
  -3.7487    0.1514E-002
  -3.7387    0.9629E-002
  -3.7287    0.6449E-002
  -3.7187    0.4184E-001
  -3.7087    0.1791E-001
  -3.6987    0.9850E-002
  -3.6887    0.2555E-001
  -3.6787    0.2640E-002
  -3.6687    0.2530E-002
  -3.6587    0.1372E-001
  -3.6486    0.1237E+000
  -3.6386    0.1841E-001
  -3.6286    0.4848E-001
  -3.6186    0.1404E-001
  -3.6086    0.3357E-002
  -3.5986    0.4546E-002
  -3.5886    0.1439E+000
  -3.5786    0.5049E-001
  -3.5686    0.1065E+000
  -3.5586    0.8550E-002
  -3.5485    0.1550E-001
  -3.5385    0.1006E+000
  -3.5285    0.2735E+000
  -3.5185    0.1980E-001
  -3.5085    0.2289E+000
  -3.4985    0.1238E-001
  -3.4885    0.1028E+000
  -3.4785    0.1702E-001
  -3.4685    0.8067E-001
  -3.4585    0.1246E-001
  -3.4484    0.5484E-001
  -3.4384    0.4208E-002
  -3.4284    0.2731E-002
  -3.4184    0.6682E-002
  -3.4084    0.1103E+000
  -3.3984    0.1516E-001
  -3.3884    0.1025E-001
  -3.3784    0.3034E-002
  -3.3684    0.2379E-001
  -3.3584    0.1180E-001
  -3.3483    0.1829E-002
  -3.3383    0.3290E-002
  -3.3283    0.2794E-002
  -3.3183    0.2545E-001
  -3.3083    0.1473E-001
  -3.2983    0.4354E-001
  -3.2883    0.2826E-002
  -3.2783    0.1126E-002
  -3.2683    0.1196E-002
  -3.2583    0.8046E-002
  -3.2482    0.5600E-002
  -3.2382    0.3048E-002
  -3.2282    0.1082E-002
  -3.2182    0.2836E-002
  -3.2082    0.1965E-001
  -3.1982    0.2903E-001
  -3.1882    0.3347E-002
  -3.1782    0.9286E-002
  -3.1682    0.2682E-001
  -3.1582    0.1206E-002
  -3.1481    0.6871E-003
  -3.1381    0.7502E-003
  -3.1281    0.5831E-002
  -3.1181    0.2584E-002
  -3.1081    0.5236E-002
  -3.0981    0.1988E-002
  -3.0881    0.6384E-002
  -3.0781    0.2011E-002
  -3.0681    0.4951E-001
  -3.0581    0.1749E-001
  -3.0480    0.1998E-002
  -3.0380    0.7374E-001
  -3.0280    0.1743E-002
  -3.0180    0.8659E-003
  -3.0080    0.9132E-003
  -2.9980    0.3102E-002
  -2.9880    0.3595E-002
  -2.9780    0.1210E-002
  -2.9680    0.2057E-002
  -2.9580    0.1248E-001
  -2.9479    0.2018E-001
  -2.9379    0.4997E-002
  -2.9279    0.5434E-001
  -2.9179    0.4579E-002
  -2.9079    0.1192E-001
  -2.8979    0.2080E+000
  -2.8879    0.3111E+000
  -2.8779    0.2631E-001
  -2.8679    0.2620E+000
  -2.8579    0.3747E-001
  -2.8478    0.5682E-001
  -2.8378    0.8566E-001
  -2.8278    0.1584E+000
  -2.8178    0.6706E-001
  -2.8078    0.2583E-001
  -2.7978    0.8819E-002
  -2.7878    0.1339E-001
  -2.7778    0.1149E-001
  -2.7678    0.3859E-001
  -2.7578    0.2929E-002
  -2.7477    0.1183E-002
  -2.7377    0.2944E-002
  -2.7277    0.7238E-003
  -2.7177    0.1189E-002
  -2.7077    0.5692E-003
  -2.6977    0.5340E-003
  -2.6877    0.5293E-003
  -2.6777    0.5403E-003
  -2.6677    0.5844E-003
  -2.6577    0.1352E-002
  -2.6476    0.1389E-002
  -2.6376    0.6889E-003
  -2.6276    0.1249E-002
  -2.6176    0.8470E-003
  -2.6076    0.2985E-002
  -2.5976    0.4924E-002
  -2.5876    0.1891E-001
  -2.5776    0.1719E-001
  -2.5676    0.6541E-002
  -2.5576    0.1643E-001
  -2.5475    0.4578E-002
  -2.5375    0.2638E-002
  -2.5275    0.6445E-002
  -2.5175    0.1752E-001
  -2.5075    0.7361E-001
  -2.4975    0.6715E-001
  -2.4875    0.3500E-001
  -2.4775    0.7230E-001
  -2.4675    0.7369E-002
  -2.4575    0.1060E-001
  -2.4474    0.1250E+000
  -2.4374    0.6226E+000
  -2.4274    0.2146E-001
  -2.4174    0.1214E-001
  -2.4074    0.5815E-001
  -2.3974    0.1052E+000
  -2.3874    0.6229E+000
  -2.3774    0.4295E-001
  -2.3674    0.7971E-001
  -2.3574    0.8282E-001
  -2.3473    0.2132E+000
  -2.3373    0.4623E+000
  -2.3273    0.7034E-001
  -2.3173    0.8058E+000
  -2.3073    0.7889E+000
  -2.2973    0.6036E+000
  -2.2873    0.2121E+000
  -2.2773    0.1196E+001
  -2.2673    0.3169E+000
  -2.2573    0.8641E+000
  -2.2472    0.3383E+000
  -2.2372    0.1226E+001
  -2.2272    0.6463E+000
  -2.2172    0.6618E+000
  -2.2072    0.7786E+000
  -2.1972    0.1009E+001
  -2.1872    0.3572E-001
  -2.1772    0.1376E-001
  -2.1672    0.8450E-002
  -2.1572    0.6627E-002
  -2.1471    0.1110E-001
  -2.1371    0.6039E-001
  -2.1271    0.2042E-001
  -2.1171    0.1349E-001
  -2.1071    0.2343E-001
  -2.0971    0.1960E-001
  -2.0871    0.1267E-001
  -2.0771    0.1226E+000
  -2.0671    0.6601E-002
  -2.0571    0.1162E-001
  -2.0470    0.1467E+000
  -2.0370    0.1491E-001
  -2.0270    0.5064E-002
  -2.0170    0.2227E-001
  -2.0070    0.8806E-001
  -1.9970    0.2478E-001
  -1.9870    0.5562E-002
  -1.9770    0.3711E-002
  -1.9670    0.1061E-001
  -1.9570    0.1135E+000
  -1.9469    0.7684E-002
  -1.9369    0.2163E-001
  -1.9269    0.1266E-001
  -1.9169    0.3255E-002
  -1.9069    0.3324E-002
  -1.8969    0.2257E-001
  -1.8869    0.9583E-002
  -1.8769    0.7290E-001
  -1.8669    0.5950E-002
  -1.8569    0.2182E+000
  -1.8468    0.2374E-001
  -1.8368    0.6351E-002
  -1.8268    0.2563E-002
  -1.8168    0.3785E-002
  -1.8068    0.1402E+000
  -1.7968    0.3200E-002
  -1.7868    0.3045E-002
  -1.7768    0.3800E-002
  -1.7668    0.1280E-001
  -1.7568    0.1523E-001
  -1.7467    0.8327E-002
  -1.7367    0.6710E-001
  -1.7267    0.3707E-002
  -1.7167    0.2615E-002
  -1.7067    0.7006E-001
  -1.6967    0.2467E-002
  -1.6867    0.1463E-002
  -1.6767    0.1446E-002
  -1.6667    0.1991E-002
  -1.6567    0.8436E-002
  -1.6466    0.1141E-001
  -1.6366    0.3085E-002
  -1.6266    0.7330E-002
  -1.6166    0.4375E-001
  -1.6066    0.3264E-001
  -1.5966    0.1377E-001
  -1.5866    0.1931E-002
  -1.5766    0.1533E-002
  -1.5666    0.1462E-002
  -1.5566    0.1536E-002
  -1.5465    0.1894E-002
  -1.5365    0.6120E-002
  -1.5265    0.5790E-002
  -1.5165    0.2300E-002
  -1.5065    0.2523E-002
  -1.4965    0.5558E-002
  -1.4865    0.3720E-001
  -1.4765    0.7315E-002
  -1.4665    0.6771E-001
  -1.4565    0.4168E-002
  -1.4464    0.3034E-002
  -1.4364    0.2973E-002
  -1.4264    0.3237E-002
  -1.4164    0.5937E-002
  -1.4064    0.4410E-002
  -1.3964    0.4262E-002
  -1.3864    0.4805E-002
  -1.3764    0.5640E-002
  -1.3664    0.7190E-002
  -1.3564    0.5144E-001
  -1.3463    0.1103E-001
  -1.3363    0.1300E-001
  -1.3263    0.2823E-001
  -1.3163    0.3373E-001
  -1.3063    0.4112E-001
  -1.2963    0.9199E-001
  -1.2863    0.2990E+001
  -1.2763    0.1219E+001
  -1.2663    0.3345E+001
  -1.2563    0.8306E+000
  -1.2462    0.3041E+001
  -1.2362    0.2772E+001
  -1.2262    0.3677E+001
  -1.2162    0.1161E+001
  -1.2062    0.5081E+000
  -1.1962    0.2519E+001
  -1.1862    0.1245E+001
  -1.1762    0.8142E+000
  -1.1662    0.1923E+001
  -1.1562    0.1352E+001
  -1.1461    0.2049E+000
  -1.1361    0.9698E+000
  -1.1261    0.6065E+000
  -1.1161    0.9655E-001
  -1.1061    0.1111E+001
  -1.0961    0.8939E-001
  -1.0861    0.3025E+000
  -1.0761    0.2221E+000
  -1.0661    0.8755E+000
  -1.0561    0.3513E-001
  -1.0460    0.4621E-001
  -1.0360    0.7148E+000
  -1.0260    0.6563E+000
  -1.0160    0.2864E-001
  -1.0060    0.2308E-001
  -0.9960    0.9658E-001
  -0.9860    0.2749E+000
  -0.9760    0.3321E-001
  -0.9660    0.9487E+000
  -0.9560    0.2930E-001
  -0.9459    0.1164E+000
  -0.9359    0.6741E-001
  -0.9259    0.1508E-001
  -0.9159    0.1570E-001
  -0.9059    0.1453E+000
  -0.8959    0.8376E-001
  -0.8859    0.1194E+000
  -0.8759    0.1401E-001
  -0.8659    0.9027E-002
  -0.8559    0.3056E-001
  -0.8458    0.6931E-001
  -0.8358    0.1816E+000
  -0.8258    0.1950E-001
  -0.8158    0.4261E-001
  -0.8058    0.5013E-001
  -0.7958    0.1222E-001
  -0.7858    0.5290E-001
  -0.7758    0.3642E-001
  -0.7658    0.7522E-002
  -0.7558    0.5847E-002
  -0.7457    0.1023E-001
  -0.7357    0.2489E+000
  -0.7257    0.3731E-001
  -0.7157    0.3642E+000
  -0.7057    0.9876E-002
  -0.6957    0.4551E-002
  -0.6857    0.4144E-002
  -0.6757    0.7833E-002
  -0.6657    0.5814E-001
  -0.6557    0.2687E-001
  -0.6456    0.1372E-001
  -0.6356    0.6793E-002
  -0.6256    0.4998E-001
  -0.6156    0.2361E-001
  -0.6056    0.7128E-002
  -0.5956    0.9574E-001
  -0.5856    0.8334E-002
  -0.5756    0.2902E-002
  -0.5656    0.2338E-002
  -0.5556    0.2960E-002
  -0.5455    0.7347E-002
  -0.5355    0.4063E+000
  -0.5255    0.1131E-001
  -0.5155    0.1076E-001
  -0.5055    0.3001E-001
  -0.4955    0.3985E-002
  -0.4855    0.1086E-001
  -0.4755    0.2543E-002
  -0.4655    0.7367E-002
  -0.4555    0.5847E-001
  -0.4454    0.3260E-002
  -0.4354    0.1857E-002
  -0.4254    0.2104E-002
  -0.4154    0.4763E-002
  -0.4054    0.9575E-001
  -0.3954    0.1173E-001
  -0.3854    0.2587E-002
  -0.3754    0.1349E-002
  -0.3654    0.9828E-003
  -0.3554    0.8711E-003
  -0.3453    0.9349E-003
  -0.3353    0.1339E-002
  -0.3253    0.3744E-002
  -0.3153    0.2715E+000
  -0.3053    0.3971E-002
  -0.2953    0.1720E-002
  -0.2853    0.2540E-002
  -0.2753    0.5134E-001
  -0.2653    0.4843E-002
  -0.2553    0.1243E-002
  -0.2452    0.7099E-003
  -0.2352    0.5362E-003
  -0.2252    0.4669E-003
  -0.2152    0.4501E-003
  -0.2052    0.4836E-003
  -0.1952    0.6123E-003
  -0.1852    0.1067E-002
  -0.1752    0.4329E-002
  -0.1652    0.5862E-001
  -0.1552    0.2081E-002
  -0.1451    0.7656E-003
  -0.1351    0.4675E-003
  -0.1251    0.3526E-003
  -0.1151    0.2955E-003
  -0.1051    0.2627E-003
  -0.0951    0.2425E-003
  -0.0851    0.2299E-003
  -0.0751    0.2229E-003
  -0.0651    0.2216E-003
  -0.0551    0.2280E-003
  -0.0450    0.2497E-003
  -0.0350    0.3139E-003
  -0.0250    0.5767E-003
  -0.0150    0.4961E-002
  -0.0050    0.2252E-002
   0.0050    0.4695E-003
   0.0150    0.2802E-003
   0.0250    0.2248E-003
   0.0350    0.2023E-003
   0.0450    0.1924E-003
   0.0551    0.1894E-003
   0.0651    0.1917E-003
   0.0751    0.1995E-003
   0.0851    0.2155E-003
   0.0951    0.2458E-003
   0.1051    0.3070E-003
   0.1151    0.4528E-003
   0.1251    0.9453E-003
   0.1351    0.5403E-002
   0.1451    0.1491E-001
   0.1552    0.1285E-002
   0.1652    0.5361E-003
   0.1752    0.3516E-003
   0.1852    0.2863E-003
   0.1952    0.2651E-003
   0.2052    0.2710E-003
   0.2152    0.3053E-003
   0.2252    0.3959E-003
   0.2352    0.6611E-003
   0.2452    0.2047E-002
   0.2553    0.1609E+000
   0.2653    0.2256E-002
   0.2753    0.9408E-003
   0.2853    0.1255E-002
   0.2953    0.9526E-002
   0.3053    0.6405E-002
   0.3153    0.1008E-002
   0.3253    0.5303E-003
   0.3353    0.6572E-003
   0.3453    0.4414E-003
   0.3554    0.4067E-003
   0.3654    0.5151E-003
   0.3754    0.8506E-003
   0.3854    0.2344E-002
   0.3954    0.5683E-001
   0.4054    0.6251E-002
   0.4154    0.1332E-002
   0.4254    0.7400E-003
   0.4354    0.6788E-003
   0.4454    0.1109E-002
   0.4555    0.8614E-002
   0.4655    0.6440E-002
   0.4755    0.1036E-002
   0.4855    0.6642E-003
   0.4955    0.7759E-003
   0.5055    0.4292E-002
   0.5155    0.3841E-001
   0.5255    0.3351E-002
   0.5355    0.2406E-002
   0.5455    0.3979E-001
   0.5556    0.7185E-002
   0.5656    0.1354E-002
   0.5756    0.7172E-003
   0.5856    0.5721E-003
   0.5956    0.6132E-003
   0.6056    0.9640E-003
   0.6156    0.4408E-002
   0.6256    0.1512E-001
   0.6356    0.2601E-002
   0.6456    0.4217E-001
   0.6557    0.7107E-002
   0.6657    0.5010E-002
   0.6757    0.1329E-002
   0.6857    0.8110E-002
   0.6957    0.5431E-002
   0.7057    0.8468E-001
   0.7157    0.2163E-002
   0.7257    0.9427E-003
   0.7357    0.8050E-003
   0.7457    0.1277E-002
   0.7558    0.3076E-001
   0.7658    0.4029E-002
   0.7758    0.4303E-002
   0.7858    0.1982E+000
   0.7958    0.4521E-002
   0.8058    0.1313E-002
   0.8158    0.8581E-003
   0.8258    0.9194E-003
   0.8358    0.7136E-002
   0.8458    0.3695E-002
   0.8559    0.1602E-001
   0.8659    0.1771E-001
   0.8759    0.5343E-001
   0.8859    0.3166E-002
   0.8959    0.1179E-002
   0.9059    0.1049E-002
   0.9159    0.1964E-002
   0.9259    0.7015E-001
   0.9359    0.4872E-002
   0.9459    0.1077E-001
   0.9560    0.4159E-002
   0.9660    0.3251E-002
   0.9760    0.3316E-001
   0.9860    0.2317E-002
   0.9960    0.3095E-001
   1.0060    0.7793E-002
   1.0160    0.5596E-001
   1.0260    0.7603E-002
   1.0360    0.1776E-002
   1.0460    0.1065E-001
   1.0561    0.1923E-002
   1.0661    0.7283E-002
   1.0761    0.7980E-001
   1.0861    0.3493E-002
   1.0961    0.1611E-002
   1.1061    0.2835E-002
   1.1161    0.2849E-001
   1.1261    0.7442E-001
   1.1361    0.2666E-002
   1.1461    0.1633E-002
   1.1562    0.1025E-001
   1.1662    0.4872E-002
   1.1762    0.1479E+000
   1.1862    0.6135E-001
   1.1962    0.2459E-001
   1.2062    0.1886E-001
   1.2162    0.8514E-001
   1.2262    0.9412E-002
   1.2362    0.3033E-002
   1.2462    0.6810E-001
   1.2563    0.7792E-001
   1.2663    0.3211E-002
   1.2763    0.2749E-001
   1.2863    0.4264E-002
   1.2963    0.8391E-001
   1.3063    0.3038E-002
   1.3163    0.5288E-001
   1.3263    0.5234E-002
   1.3363    0.6455E-001
   1.3463    0.6149E-002
   1.3564    0.6277E-002
   1.3664    0.1702E-001
   1.3764    0.8817E-002
   1.3864    0.1272E+000
   1.3964    0.7774E-002
   1.4064    0.6589E-001
   1.4164    0.4690E-002
   1.4264    0.5097E-002
   1.4364    0.3721E-001
   1.4464    0.6616E-002
   1.4565    0.5396E-002
   1.4665    0.1325E-001
   1.4765    0.3693E-002
   1.4865    0.3046E-001
   1.4965    0.6335E-001
   1.5065    0.8548E-001
   1.5165    0.3983E-001
   1.5265    0.1093E+000
   1.5365    0.1091E+000
   1.5465    0.3953E-001
   1.5566    0.6970E-001
   1.5666    0.8299E-001
   1.5766    0.1376E+000
   1.5866    0.2477E-001
   1.5966    0.6395E-001
   1.6066    0.5227E-001
   1.6166    0.3446E-001
   1.6266    0.4500E-001
   1.6366    0.2356E+000
   1.6466    0.4146E-001
   1.6567    0.6582E-002
   1.6667    0.3032E-001
   1.6767    0.9341E-001
   1.6867    0.6914E-002
   1.6967    0.3902E-001
   1.7067    0.8871E-001
   1.7167    0.1926E-001
   1.7267    0.7280E-001
   1.7367    0.9481E-001
   1.7467    0.1826E+000
   1.7568    0.1182E+000
   1.7668    0.7242E-001
   1.7768    0.8954E-001
   1.7868    0.1215E-001
   1.7968    0.2390E-001
   1.8068    0.1772E-001
   1.8168    0.1601E-001
   1.8268    0.6430E-002
   1.8368    0.2472E-002
   1.8468    0.2140E-001
   1.8569    0.4945E-001
   1.8669    0.1195E-001
   1.8769    0.1267E-002
   1.8869    0.9707E-003
   1.8969    0.1566E-002
   1.9069    0.3446E-001
   1.9169    0.2293E-002
   1.9269    0.5395E-002
   1.9369    0.1686E-001
   1.9469    0.6237E-001
   1.9570    0.1513E+000
   1.9670    0.1486E-001
   1.9770    0.4614E-002
   1.9870    0.1470E-001
   1.9970    0.1811E-002
   2.0070    0.2475E-001
   2.0170    0.1340E-001
   2.0270    0.5687E-002
   2.0370    0.2791E-001
   2.0470    0.7665E-002
   2.0571    0.7241E-002
   2.0671    0.1776E-001
   2.0771    0.3605E-001
   2.0871    0.5937E-001
   2.0971    0.3462E-002
   2.1071    0.9597E-001
   2.1171    0.1081E-001
   2.1271    0.7737E-001
   2.1371    0.1461E-001
   2.1471    0.2335E-002
   2.1572    0.9054E-002
   2.1672    0.3419E-001
   2.1772    0.7365E-002
   2.1872    0.2094E-002
   2.1972    0.4236E-001
   2.2072    0.1124E-002
   2.2172    0.5780E-003
   2.2272    0.1102E-002
   2.2372    0.7963E-003
   2.2472    0.1095E-001
   2.2573    0.2736E-002
   2.2673    0.6885E-001
   2.2773    0.3163E-002
   2.2873    0.3972E-002
   2.2973    0.7489E-003
   2.3073    0.2059E-002
   2.3173    0.1372E-001
   2.3273    0.2944E-001
   2.3373    0.1369E-001
   2.3473    0.1432E-002
   2.3574    0.4352E-002
   2.3674    0.1010E-001
   2.3774    0.4699E-002
   2.3874    0.1020E-001
   2.3974    0.9884E-003
   2.4074    0.9682E-002
   2.4174    0.2750E-001
   2.4274    0.1870E-001
   2.4374    0.1207E-002
   2.4474    0.3654E-002
   2.4575    0.1574E-001
   2.4675    0.2773E-002
   2.4775    0.8529E-002
   2.4875    0.7525E-003
   2.4975    0.6876E-003
   2.5075    0.9701E-002
   2.5175    0.2295E-002
   2.5275    0.2152E-001
   2.5375    0.8143E-002
   2.5475    0.4565E-003
   2.5576    0.4168E-003
   2.5676    0.1491E-002
   2.5776    0.4000E-001
   2.5876    0.7279E-003
   2.5976    0.3757E-003
   2.6076    0.4955E-003
   2.6176    0.2961E-002
   2.6276    0.3256E-002
   2.6376    0.4598E-002
   2.6476    0.2580E-002
   2.6577    0.1060E-001
   2.6677    0.8239E-003
   2.6777    0.1139E-002
   2.6877    0.5327E-003
   2.6977    0.7277E-003
   2.7077    0.2144E-001
   2.7177    0.1642E-002
   2.7277    0.7404E-002
   2.7377    0.5568E-002
   2.7477    0.2735E-001
   2.7578    0.2694E-002
   2.7678    0.7000E-003
   2.7778    0.9873E-002
   2.7878    0.4886E-002
   2.7978    0.5551E-003
   2.8078    0.7034E-002
   2.8178    0.8184E-003
   2.8278    0.1385E-002
   2.8378    0.9715E-002
   2.8478    0.4607E-002
   2.8579    0.1819E-001
   2.8679    0.3261E-002
   2.8779    0.5011E-002
   2.8879    0.1337E-002
   2.8979    0.1461E-002
   2.9079    0.1019E-002
   2.9179    0.4598E-001
   2.9279    0.1278E-001
   2.9379    0.1125E-001
   2.9479    0.5945E-003
   2.9580    0.5122E-003
   2.9680    0.1678E-002
   2.9780    0.5174E-002
   2.9880    0.1845E-001
   2.9980    0.1482E-002
   3.0080    0.1391E-001
   3.0180    0.1027E-002
   3.0280    0.1751E-001
   3.0380    0.1173E-002
   3.0480    0.7231E-002
   3.0581    0.3373E-002
   3.0681    0.1250E-001
   3.0781    0.1715E-001
   3.0881    0.9886E-003
   3.0981    0.1492E-002
   3.1081    0.1427E-001
   3.1181    0.1332E-001
   3.1281    0.1038E-002
   3.1381    0.1812E-002
   3.1481    0.4172E-003
   3.1582    0.1125E-002
   3.1682    0.3150E-002
   3.1782    0.5917E-003
   3.1882    0.7728E-002
   3.1982    0.2794E-002
   3.2082    0.2544E-002
   3.2182    0.1432E-001
   3.2282    0.5762E-002
   3.2382    0.2366E-002
   3.2482    0.7550E-002
   3.2583    0.8702E-003
   3.2683    0.7128E-003
   3.2783    0.2138E-001
   3.2883    0.6404E-002
   3.2983    0.9137E-002
   3.3083    0.1096E-002
   3.3183    0.2139E-002
   3.3283    0.1112E-002
   3.3383    0.6345E-003
   3.3483    0.1288E-001
   3.3584    0.7272E-002
   3.3684    0.1221E-002
   3.3784    0.2959E-002
   3.3884    0.1837E-001
   3.3984    0.3337E-002
   3.4084    0.3693E-003
   3.4184    0.3971E-003
   3.4284    0.6580E-002
   3.4384    0.5031E-003
   3.4484    0.1268E-002
   3.4585    0.3425E-001
   3.4685    0.4783E-002
   3.4785    0.2697E-002
   3.4885    0.1384E-001
   3.4985    0.1406E-001
   3.5085    0.6531E-002
   3.5185    0.9210E-003
   3.5285    0.3955E-003
   3.5385    0.7082E-003
   3.5485    0.1214E-001
   3.5586    0.4660E-003
   3.5686    0.1735E-002
   3.5786    0.5016E-003
   3.5886    0.3980E-003
   3.5986    0.1744E-002
   3.6086    0.5549E-002
   3.6186    0.1989E-002
   3.6286    0.1128E-002
   3.6386    0.1339E-002
   3.6486    0.6742E-002
   3.6587    0.7143E-003
   3.6687    0.1218E-002
   3.6787    0.4606E-002
   3.6887    0.3054E-001
   3.6987    0.1146E-002
   3.7087    0.6498E-003
   3.7187    0.2970E-002
   3.7287    0.1107E-001
   3.7387    0.1364E-001
   3.7487    0.1442E-002
   3.7588    0.2705E-003
   3.7688    0.2275E-003
   3.7788    0.7895E-003
   3.7888    0.3289E-002
   3.7988    0.1039E-002
   3.8088    0.1367E-001
   3.8188    0.6299E-003
   3.8288    0.6631E-002
   3.8388    0.3967E-002
   3.8488    0.4009E-002
   3.8589    0.6350E-003
   3.8689    0.1150E-001
   3.8789    0.5980E-003
   3.8889    0.1534E-001
   3.8989    0.9554E-003
   3.9089    0.7990E-003
   3.9189    0.8549E-002
   3.9289    0.1034E-002
   3.9389    0.2460E-003
   3.9489    0.2236E-003
   3.9590    0.4068E-003
   3.9690    0.7380E-002
   3.9790    0.7747E-002
   3.9890    0.1082E-002
   3.9990    0.1678E-002
   4.0090    0.2054E-001
   4.0190    0.5304E-003
   4.0290    0.2846E-003
   4.0390    0.5085E-003
   4.0490    0.1217E-002
   4.0591    0.5138E-001
   4.0691    0.1889E-002
   4.0791    0.4674E-003
   4.0891    0.4586E-002
   4.0991    0.7361E-002
   4.1091    0.3640E-003
   4.1191    0.8242E-003
   4.1291    0.8600E-003
   4.1391    0.2827E-003
   4.1491    0.1309E-002
   4.1592    0.1918E-002
   4.1692    0.1169E-001
   4.1792    0.1906E-001
   4.1892    0.3848E-002
   4.1992    0.9218E-003
   4.2092    0.3451E-003
   4.2192    0.5570E-003
   4.2292    0.3027E-001
   4.2392    0.4817E-003
   4.2492    0.4007E-003
   4.2593    0.8558E-002
   4.2693    0.5198E-003
   4.2793    0.4499E-002
   4.2893    0.3748E-003
   4.2993    0.2340E-003
   4.3093    0.4015E-003
   4.3193    0.8750E-002
   4.3293    0.2184E-001
   4.3393    0.4025E-002
   4.3493    0.7841E-003
   4.3594    0.2586E-001
   4.3694    0.6095E-002
   4.3794    0.7551E-003
   4.3894    0.3917E-003
   4.3994    0.1399E-003
   4.4094    0.1134E-003
   4.4194    0.1444E-003
   4.4294    0.1241E-002
   4.4394    0.4881E-003
   4.4494    0.1158E-001
   4.4595    0.7199E-002
   4.4695    0.3107E-003
   4.4795    0.2015E-003
   4.4895    0.8145E-003
   4.4995    0.1909E-002
   4.5095    0.7600E-003
   4.5195    0.2675E-003
   4.5295    0.1099E-002
   4.5395    0.4602E-002
   4.5495    0.4643E-002
   4.5596    0.4680E-003
   4.5696    0.1512E-003
   4.5796    0.1165E-003
   4.5896    0.1546E-003
   4.5996    0.5049E-002
   4.6096    0.3158E-003
   4.6196    0.2655E-002
   4.6296    0.5405E-002
   4.6396    0.8483E-003
   4.6496    0.1653E-003
   4.6597    0.9575E-004
   4.6697    0.8056E-004
   4.6797    0.9027E-004
   4.6897    0.1600E-003
   4.6997    0.3077E-002
   4.7097    0.5079E-003
   4.7197    0.1522E-001
   4.7297    0.5070E-003
   4.7397    0.5517E-002
   4.7497    0.5628E-003
   4.7598    0.1733E-002
   4.7698    0.1937E-002
   4.7798    0.1905E-002
   4.7898    0.6454E-003
   4.7998    0.9994E-003
   4.8098    0.1743E-003
   4.8198    0.3154E-003
   4.8298    0.1086E-002
   4.8398    0.1520E-003
   4.8498    0.3105E-003
   4.8599    0.4094E-002
   4.8699    0.2027E-003
   4.8799    0.1736E-002
   4.8899    0.3145E-003
   4.8999    0.9606E-003
   4.9099    0.2460E-003
   4.9199    0.7039E-002
   4.9299    0.2343E-003
   4.9399    0.1224E-003
   4.9499    0.3339E-003
   4.9600    0.3157E-002
   4.9700    0.1896E-003
   4.9800    0.1874E-003
   4.9900    0.2124E-002
   5.0000    0.4912E-003
