 # E (eV)   ldos(E)
  -5.0000    0.9150E-002
  -4.9900    0.7276E-002
  -4.9800    0.6210E-002
  -4.9700    0.5521E-002
  -4.9600    0.4930E-002
  -4.9499    0.4303E-002
  -4.9399    0.3617E-002
  -4.9299    0.2908E-002
  -4.9199    0.2239E-002
  -4.9099    0.1669E-002
  -4.8999    0.1242E-002
  -4.8899    0.9824E-003
  -4.8799    0.8935E-003
  -4.8699    0.9655E-003
  -4.8599    0.1180E-002
  -4.8498    0.1515E-002
  -4.8398    0.1950E-002
  -4.8298    0.2464E-002
  -4.8198    0.3045E-002
  -4.8098    0.3681E-002
  -4.7998    0.4366E-002
  -4.7898    0.5094E-002
  -4.7798    0.5861E-002
  -4.7698    0.6662E-002
  -4.7598    0.7491E-002
  -4.7497    0.8346E-002
  -4.7397    0.9229E-002
  -4.7297    0.1014E-001
  -4.7197    0.1109E-001
  -4.7097    0.1207E-001
  -4.6997    0.1307E-001
  -4.6897    0.1409E-001
  -4.6797    0.1513E-001
  -4.6697    0.1620E-001
  -4.6597    0.1731E-001
  -4.6496    0.1849E-001
  -4.6396    0.1971E-001
  -4.6296    0.2096E-001
  -4.6196    0.2223E-001
  -4.6096    0.2352E-001
  -4.5996    0.2487E-001
  -4.5896    0.2632E-001
  -4.5796    0.2789E-001
  -4.5696    0.2959E-001
  -4.5596    0.3143E-001
  -4.5495    0.3337E-001
  -4.5395    0.3542E-001
  -4.5295    0.3758E-001
  -4.5195    0.3986E-001
  -4.5095    0.4221E-001
  -4.4995    0.4455E-001
  -4.4895    0.4667E-001
  -4.4795    0.4829E-001
  -4.4695    0.4914E-001
  -4.4595    0.4899E-001
  -4.4494    0.4784E-001
  -4.4394    0.4598E-001
  -4.4294    0.4396E-001
  -4.4194    0.4260E-001
  -4.4094    0.4270E-001
  -4.3994    0.4486E-001
  -4.3894    0.4933E-001
  -4.3794    0.5588E-001
  -4.3694    0.6392E-001
  -4.3594    0.7268E-001
  -4.3493    0.8142E-001
  -4.3393    0.8962E-001
  -4.3293    0.9710E-001
  -4.3193    0.1040E+000
  -4.3093    0.1106E+000
  -4.2993    0.1176E+000
  -4.2893    0.1256E+000
  -4.2793    0.1351E+000
  -4.2693    0.1464E+000
  -4.2593    0.1595E+000
  -4.2492    0.1737E+000
  -4.2392    0.1873E+000
  -4.2292    0.1983E+000
  -4.2192    0.2041E+000
  -4.2092    0.2027E+000
  -4.1992    0.1932E+000
  -4.1892    0.1763E+000
  -4.1792    0.1538E+000
  -4.1692    0.1288E+000
  -4.1592    0.1041E+000
  -4.1491    0.8205E-001
  -4.1391    0.6371E-001
  -4.1291    0.4933E-001
  -4.1191    0.3844E-001
  -4.1091    0.3030E-001
  -4.0991    0.2421E-001
  -4.0891    0.1966E-001
  -4.0791    0.1633E-001
  -4.0691    0.1406E-001
  -4.0591    0.1271E-001
  -4.0490    0.1213E-001
  -4.0390    0.1208E-001
  -4.0290    0.1228E-001
  -4.0190    0.1246E-001
  -4.0090    0.1238E-001
  -3.9990    0.1196E-001
  -3.9890    0.1125E-001
  -3.9790    0.1040E-001
  -3.9690    0.9651E-002
  -3.9590    0.9196E-002
  -3.9489    0.9175E-002
  -3.9389    0.9614E-002
  -3.9289    0.1042E-001
  -3.9189    0.1139E-001
  -3.9089    0.1232E-001
  -3.8989    0.1300E-001
  -3.8889    0.1335E-001
  -3.8789    0.1344E-001
  -3.8689    0.1344E-001
  -3.8589    0.1358E-001
  -3.8488    0.1405E-001
  -3.8388    0.1488E-001
  -3.8288    0.1597E-001
  -3.8188    0.1707E-001
  -3.8088    0.1794E-001
  -3.7988    0.1837E-001
  -3.7888    0.1838E-001
  -3.7788    0.1813E-001
  -3.7688    0.1794E-001
  -3.7588    0.1812E-001
  -3.7487    0.1888E-001
  -3.7387    0.2021E-001
  -3.7287    0.2193E-001
  -3.7187    0.2373E-001
  -3.7087    0.2536E-001
  -3.6987    0.2668E-001
  -3.6887    0.2779E-001
  -3.6787    0.2888E-001
  -3.6687    0.3015E-001
  -3.6587    0.3172E-001
  -3.6486    0.3358E-001
  -3.6386    0.3566E-001
  -3.6286    0.3790E-001
  -3.6186    0.4035E-001
  -3.6086    0.4315E-001
  -3.5986    0.4649E-001
  -3.5886    0.5049E-001
  -3.5786    0.5524E-001
  -3.5686    0.6064E-001
  -3.5586    0.6645E-001
  -3.5485    0.7224E-001
  -3.5385    0.7743E-001
  -3.5285    0.8134E-001
  -3.5185    0.8340E-001
  -3.5085    0.8325E-001
  -3.4985    0.8087E-001
  -3.4885    0.7656E-001
  -3.4785    0.7085E-001
  -3.4685    0.6438E-001
  -3.4585    0.5780E-001
  -3.4484    0.5165E-001
  -3.4384    0.4632E-001
  -3.4284    0.4195E-001
  -3.4184    0.3841E-001
  -3.4084    0.3543E-001
  -3.3984    0.3267E-001
  -3.3884    0.2993E-001
  -3.3784    0.2719E-001
  -3.3684    0.2464E-001
  -3.3584    0.2250E-001
  -3.3483    0.2095E-001
  -3.3383    0.1999E-001
  -3.3283    0.1942E-001
  -3.3183    0.1896E-001
  -3.3083    0.1833E-001
  -3.2983    0.1738E-001
  -3.2883    0.1612E-001
  -3.2783    0.1471E-001
  -3.2683    0.1338E-001
  -3.2583    0.1233E-001
  -3.2482    0.1166E-001
  -3.2382    0.1140E-001
  -3.2282    0.1146E-001
  -3.2182    0.1170E-001
  -3.2082    0.1194E-001
  -3.1982    0.1202E-001
  -3.1882    0.1181E-001
  -3.1782    0.1127E-001
  -3.1682    0.1049E-001
  -3.1582    0.9600E-002
  -3.1481    0.8795E-002
  -3.1381    0.8240E-002
  -3.1281    0.8034E-002
  -3.1181    0.8184E-002
  -3.1081    0.8620E-002
  -3.0981    0.9217E-002
  -3.0881    0.9828E-002
  -3.0781    0.1032E-001
  -3.0681    0.1058E-001
  -3.0581    0.1055E-001
  -3.0480    0.1025E-001
  -3.0380    0.9760E-002
  -3.0280    0.9216E-002
  -3.0180    0.8813E-002
  -3.0080    0.8761E-002
  -2.9980    0.9275E-002
  -2.9880    0.1058E-001
  -2.9780    0.1292E-001
  -2.9680    0.1657E-001
  -2.9580    0.2186E-001
  -2.9479    0.2904E-001
  -2.9379    0.3822E-001
  -2.9279    0.4916E-001
  -2.9179    0.6118E-001
  -2.9079    0.7315E-001
  -2.8979    0.8369E-001
  -2.8879    0.9148E-001
  -2.8779    0.9557E-001
  -2.8679    0.9560E-001
  -2.8579    0.9183E-001
  -2.8478    0.8497E-001
  -2.8378    0.7597E-001
  -2.8278    0.6580E-001
  -2.8178    0.5532E-001
  -2.8078    0.4522E-001
  -2.7978    0.3599E-001
  -2.7878    0.2794E-001
  -2.7778    0.2121E-001
  -2.7678    0.1576E-001
  -2.7578    0.1148E-001
  -2.7477    0.8182E-002
  -2.7377    0.5694E-002
  -2.7277    0.3862E-002
  -2.7177    0.2560E-002
  -2.7077    0.1687E-002
  -2.6977    0.1154E-002
  -2.6877    0.8935E-003
  -2.6777    0.8544E-003
  -2.6677    0.1014E-002
  -2.6577    0.1377E-002
  -2.6476    0.1969E-002
  -2.6376    0.2824E-002
  -2.6276    0.3959E-002
  -2.6176    0.5360E-002
  -2.6076    0.6982E-002
  -2.5976    0.8773E-002
  -2.5876    0.1071E-001
  -2.5776    0.1286E-001
  -2.5676    0.1534E-001
  -2.5576    0.1835E-001
  -2.5475    0.2205E-001
  -2.5375    0.2652E-001
  -2.5275    0.3171E-001
  -2.5175    0.3757E-001
  -2.5075    0.4410E-001
  -2.4975    0.5142E-001
  -2.4875    0.5979E-001
  -2.4775    0.6941E-001
  -2.4675    0.8031E-001
  -2.4575    0.9231E-001
  -2.4474    0.1051E+000
  -2.4374    0.1185E+000
  -2.4274    0.1326E+000
  -2.4174    0.1475E+000
  -2.4074    0.1635E+000
  -2.3974    0.1810E+000
  -2.3874    0.1998E+000
  -2.3774    0.2201E+000
  -2.3674    0.2419E+000
  -2.3574    0.2653E+000
  -2.3473    0.2904E+000
  -2.3373    0.3172E+000
  -2.3273    0.3459E+000
  -2.3173    0.3763E+000
  -2.3073    0.4084E+000
  -2.2973    0.4420E+000
  -2.2873    0.4767E+000
  -2.2773    0.5111E+000
  -2.2673    0.5432E+000
  -2.2573    0.5699E+000
  -2.2472    0.5868E+000
  -2.2372    0.5893E+000
  -2.2272    0.5735E+000
  -2.2172    0.5375E+000
  -2.2072    0.4825E+000
  -2.1972    0.4130E+000
  -2.1872    0.3362E+000
  -2.1772    0.2604E+000
  -2.1672    0.1928E+000
  -2.1572    0.1380E+000
  -2.1471    0.9778E-001
  -2.1371    0.7098E-001
  -2.1271    0.5496E-001
  -2.1171    0.4655E-001
  -2.1071    0.4290E-001
  -2.0971    0.4194E-001
  -2.0871    0.4230E-001
  -2.0771    0.4320E-001
  -2.0671    0.4423E-001
  -2.0571    0.4513E-001
  -2.0470    0.4579E-001
  -2.0370    0.4610E-001
  -2.0270    0.4604E-001
  -2.0170    0.4565E-001
  -2.0070    0.4504E-001
  -1.9970    0.4436E-001
  -1.9870    0.4374E-001
  -1.9770    0.4321E-001
  -1.9670    0.4268E-001
  -1.9570    0.4198E-001
  -1.9469    0.4096E-001
  -1.9369    0.3962E-001
  -1.9269    0.3809E-001
  -1.9169    0.3667E-001
  -1.9069    0.3561E-001
  -1.8969    0.3505E-001
  -1.8869    0.3489E-001
  -1.8769    0.3485E-001
  -1.8669    0.3459E-001
  -1.8569    0.3381E-001
  -1.8468    0.3239E-001
  -1.8368    0.3047E-001
  -1.8268    0.2837E-001
  -1.8168    0.2653E-001
  -1.8068    0.2532E-001
  -1.7968    0.2495E-001
  -1.7868    0.2536E-001
  -1.7768    0.2629E-001
  -1.7668    0.2727E-001
  -1.7568    0.2780E-001
  -1.7467    0.2748E-001
  -1.7367    0.2617E-001
  -1.7267    0.2400E-001
  -1.7167    0.2136E-001
  -1.7067    0.1878E-001
  -1.6967    0.1677E-001
  -1.6867    0.1571E-001
  -1.6767    0.1574E-001
  -1.6667    0.1675E-001
  -1.6567    0.1842E-001
  -1.6466    0.2027E-001
  -1.6366    0.2174E-001
  -1.6266    0.2240E-001
  -1.6166    0.2196E-001
  -1.6066    0.2042E-001
  -1.5966    0.1804E-001
  -1.5866    0.1529E-001
  -1.5766    0.1267E-001
  -1.5666    0.1064E-001
  -1.5566    0.9466E-002
  -1.5465    0.9245E-002
  -1.5365    0.9897E-002
  -1.5265    0.1122E-001
  -1.5165    0.1295E-001
  -1.5065    0.1473E-001
  -1.4965    0.1622E-001
  -1.4865    0.1706E-001
  -1.4765    0.1703E-001
  -1.4665    0.1607E-001
  -1.4565    0.1433E-001
  -1.4464    0.1210E-001
  -1.4364    0.9806E-002
  -1.4264    0.7836E-002
  -1.4164    0.6562E-002
  -1.4064    0.6382E-002
  -1.3964    0.7909E-002
  -1.3864    0.1230E-001
  -1.3764    0.2173E-001
  -1.3664    0.3994E-001
  -1.3564    0.7266E-001
  -1.3463    0.1277E+000
  -1.3363    0.2141E+000
  -1.3263    0.3407E+000
  -1.3163    0.5131E+000
  -1.3063    0.7317E+000
  -1.2963    0.9891E+000
  -1.2863    0.1270E+001
  -1.2763    0.1552E+001
  -1.2663    0.1808E+001
  -1.2563    0.2014E+001
  -1.2462    0.2147E+001
  -1.2362    0.2193E+001
  -1.2262    0.2151E+001
  -1.2162    0.2030E+001
  -1.2062    0.1850E+001
  -1.1962    0.1637E+001
  -1.1862    0.1418E+001
  -1.1762    0.1212E+001
  -1.1662    0.1033E+001
  -1.1562    0.8856E+000
  -1.1461    0.7683E+000
  -1.1361    0.6765E+000
  -1.1261    0.6045E+000
  -1.1161    0.5471E+000
  -1.1061    0.5004E+000
  -1.0961    0.4613E+000
  -1.0861    0.4281E+000
  -1.0761    0.3993E+000
  -1.0661    0.3742E+000
  -1.0561    0.3521E+000
  -1.0460    0.3323E+000
  -1.0360    0.3144E+000
  -1.0260    0.2980E+000
  -1.0160    0.2830E+000
  -1.0060    0.2691E+000
  -0.9960    0.2561E+000
  -0.9860    0.2438E+000
  -0.9760    0.2319E+000
  -0.9660    0.2201E+000
  -0.9560    0.2086E+000
  -0.9459    0.1978E+000
  -0.9359    0.1881E+000
  -0.9259    0.1797E+000
  -0.9159    0.1725E+000
  -0.9059    0.1659E+000
  -0.8959    0.1592E+000
  -0.8859    0.1524E+000
  -0.8759    0.1457E+000
  -0.8659    0.1395E+000
  -0.8559    0.1344E+000
  -0.8458    0.1304E+000
  -0.8358    0.1270E+000
  -0.8258    0.1233E+000
  -0.8158    0.1189E+000
  -0.8058    0.1134E+000
  -0.7958    0.1073E+000
  -0.7858    0.1012E+000
  -0.7758    0.9596E-001
  -0.7658    0.9201E-001
  -0.7558    0.8943E-001
  -0.7457    0.8773E-001
  -0.7357    0.8607E-001
  -0.7257    0.8368E-001
  -0.7157    0.8023E-001
  -0.7057    0.7599E-001
  -0.6957    0.7169E-001
  -0.6857    0.6811E-001
  -0.6757    0.6573E-001
  -0.6657    0.6454E-001
  -0.6557    0.6405E-001
  -0.6456    0.6360E-001
  -0.6356    0.6253E-001
  -0.6256    0.6044E-001
  -0.6156    0.5725E-001
  -0.6056    0.5325E-001
  -0.5956    0.4901E-001
  -0.5856    0.4526E-001
  -0.5756    0.4265E-001
  -0.5656    0.4148E-001
  -0.5556    0.4159E-001
  -0.5455    0.4237E-001
  -0.5355    0.4300E-001
  -0.5255    0.4279E-001
  -0.5155    0.4138E-001
  -0.5055    0.3888E-001
  -0.4955    0.3575E-001
  -0.4855    0.3261E-001
  -0.4755    0.2999E-001
  -0.4655    0.2820E-001
  -0.4555    0.2735E-001
  -0.4454    0.2731E-001
  -0.4354    0.2777E-001
  -0.4254    0.2828E-001
  -0.4154    0.2837E-001
  -0.4054    0.2763E-001
  -0.3954    0.2591E-001
  -0.3854    0.2338E-001
  -0.3754    0.2052E-001
  -0.3654    0.1795E-001
  -0.3554    0.1618E-001
  -0.3453    0.1548E-001
  -0.3353    0.1574E-001
  -0.3253    0.1660E-001
  -0.3153    0.1759E-001
  -0.3053    0.1825E-001
  -0.2953    0.1828E-001
  -0.2853    0.1755E-001
  -0.2753    0.1609E-001
  -0.2653    0.1409E-001
  -0.2553    0.1183E-001
  -0.2452    0.9653E-002
  -0.2352    0.7896E-002
  -0.2252    0.6812E-002
  -0.2152    0.6509E-002
  -0.2052    0.6913E-002
  -0.1952    0.7773E-002
  -0.1852    0.8728E-002
  -0.1752    0.9400E-002
  -0.1652    0.9509E-002
  -0.1552    0.8945E-002
  -0.1451    0.7794E-002
  -0.1351    0.6279E-002
  -0.1251    0.4679E-002
  -0.1151    0.3238E-002
  -0.1051    0.2110E-002
  -0.0951    0.1353E-002
  -0.0851    0.9537E-003
  -0.0751    0.8634E-003
  -0.0651    0.1020E-002
  -0.0551    0.1355E-002
  -0.0450    0.1790E-002
  -0.0350    0.2235E-002
  -0.0250    0.2594E-002
  -0.0150    0.2785E-002
  -0.0050    0.2762E-002
   0.0050    0.2530E-002
   0.0150    0.2146E-002
   0.0250    0.1696E-002
   0.0350    0.1278E-002
   0.0450    0.9787E-003
   0.0551    0.8700E-003
   0.0651    0.1010E-002
   0.0751    0.1446E-002
   0.0851    0.2197E-002
   0.0951    0.3241E-002
   0.1051    0.4484E-002
   0.1151    0.5753E-002
   0.1251    0.6825E-002
   0.1351    0.7483E-002
   0.1451    0.7593E-002
   0.1552    0.7156E-002
   0.1652    0.6319E-002
   0.1752    0.5339E-002
   0.1852    0.4504E-002
   0.1952    0.4058E-002
   0.2052    0.4146E-002
   0.2152    0.4786E-002
   0.2252    0.5877E-002
   0.2352    0.7231E-002
   0.2452    0.8621E-002
   0.2553    0.9827E-002
   0.2653    0.1068E-001
   0.2753    0.1107E-001
   0.2853    0.1096E-001
   0.2953    0.1041E-001
   0.3053    0.9531E-002
   0.3153    0.8522E-002
   0.3253    0.7639E-002
   0.3353    0.7147E-002
   0.3453    0.7244E-002
   0.3554    0.7991E-002
   0.3654    0.9266E-002
   0.3754    0.1079E-001
   0.3854    0.1219E-001
   0.3954    0.1316E-001
   0.4054    0.1353E-001
   0.4154    0.1330E-001
   0.4254    0.1267E-001
   0.4354    0.1186E-001
   0.4454    0.1112E-001
   0.4555    0.1059E-001
   0.4655    0.1037E-001
   0.4755    0.1050E-001
   0.4855    0.1101E-001
   0.4955    0.1188E-001
   0.5055    0.1300E-001
   0.5155    0.1416E-001
   0.5255    0.1510E-001
   0.5355    0.1557E-001
   0.5455    0.1543E-001
   0.5556    0.1472E-001
   0.5656    0.1367E-001
   0.5756    0.1264E-001
   0.5856    0.1199E-001
   0.5956    0.1193E-001
   0.6056    0.1252E-001
   0.6156    0.1357E-001
   0.6256    0.1480E-001
   0.6356    0.1590E-001
   0.6456    0.1668E-001
   0.6557    0.1704E-001
   0.6657    0.1703E-001
   0.6757    0.1674E-001
   0.6857    0.1628E-001
   0.6957    0.1574E-001
   0.7057    0.1519E-001
   0.7157    0.1475E-001
   0.7257    0.1458E-001
   0.7357    0.1478E-001
   0.7457    0.1539E-001
   0.7558    0.1627E-001
   0.7658    0.1716E-001
   0.7758    0.1778E-001
   0.7858    0.1796E-001
   0.7958    0.1770E-001
   0.8058    0.1726E-001
   0.8158    0.1695E-001
   0.8258    0.1702E-001
   0.8358    0.1756E-001
   0.8458    0.1838E-001
   0.8559    0.1918E-001
   0.8659    0.1966E-001
   0.8759    0.1965E-001
   0.8859    0.1921E-001
   0.8959    0.1855E-001
   0.9059    0.1792E-001
   0.9159    0.1751E-001
   0.9259    0.1738E-001
   0.9359    0.1753E-001
   0.9459    0.1789E-001
   0.9560    0.1844E-001
   0.9660    0.1915E-001
   0.9760    0.1998E-001
   0.9860    0.2084E-001
   0.9960    0.2158E-001
   1.0060    0.2207E-001
   1.0160    0.2223E-001
   1.0260    0.2210E-001
   1.0360    0.2180E-001
   1.0460    0.2149E-001
   1.0561    0.2127E-001
   1.0661    0.2113E-001
   1.0761    0.2102E-001
   1.0861    0.2086E-001
   1.0961    0.2065E-001
   1.1061    0.2045E-001
   1.1161    0.2036E-001
   1.1261    0.2054E-001
   1.1361    0.2107E-001
   1.1461    0.2196E-001
   1.1562    0.2314E-001
   1.1662    0.2440E-001
   1.1762    0.2553E-001
   1.1862    0.2634E-001
   1.1962    0.2673E-001
   1.2062    0.2674E-001
   1.2162    0.2646E-001
   1.2262    0.2603E-001
   1.2362    0.2554E-001
   1.2462    0.2506E-001
   1.2563    0.2460E-001
   1.2663    0.2421E-001
   1.2763    0.2397E-001
   1.2863    0.2399E-001
   1.2963    0.2436E-001
   1.3063    0.2513E-001
   1.3163    0.2629E-001
   1.3263    0.2775E-001
   1.3363    0.2937E-001
   1.3463    0.3100E-001
   1.3564    0.3246E-001
   1.3664    0.3361E-001
   1.3764    0.3434E-001
   1.3864    0.3456E-001
   1.3964    0.3429E-001
   1.4064    0.3367E-001
   1.4164    0.3290E-001
   1.4264    0.3225E-001
   1.4364    0.3205E-001
   1.4464    0.3257E-001
   1.4565    0.3404E-001
   1.4665    0.3661E-001
   1.4765    0.4028E-001
   1.4865    0.4490E-001
   1.4965    0.5023E-001
   1.5065    0.5602E-001
   1.5165    0.6200E-001
   1.5265    0.6799E-001
   1.5365    0.7382E-001
   1.5465    0.7927E-001
   1.5566    0.8411E-001
   1.5666    0.8807E-001
   1.5766    0.9090E-001
   1.5866    0.9247E-001
   1.5966    0.9269E-001
   1.6066    0.9160E-001
   1.6166    0.8927E-001
   1.6266    0.8585E-001
   1.6366    0.8165E-001
   1.6466    0.7716E-001
   1.6567    0.7303E-001
   1.6667    0.7002E-001
   1.6767    0.6876E-001
   1.6867    0.6962E-001
   1.6967    0.7255E-001
   1.7067    0.7704E-001
   1.7167    0.8221E-001
   1.7267    0.8691E-001
   1.7367    0.9002E-001
   1.7467    0.9066E-001
   1.7568    0.8839E-001
   1.7668    0.8329E-001
   1.7768    0.7592E-001
   1.7868    0.6711E-001
   1.7968    0.5775E-001
   1.8068    0.4861E-001
   1.8168    0.4021E-001
   1.8268    0.3286E-001
   1.8368    0.2668E-001
   1.8468    0.2169E-001
   1.8569    0.1788E-001
   1.8669    0.1524E-001
   1.8769    0.1376E-001
   1.8869    0.1344E-001
   1.8969    0.1419E-001
   1.9069    0.1581E-001
   1.9169    0.1796E-001
   1.9269    0.2020E-001
   1.9369    0.2205E-001
   1.9469    0.2310E-001
   1.9570    0.2321E-001
   1.9670    0.2244E-001
   1.9770    0.2113E-001
   1.9870    0.1973E-001
   1.9970    0.1867E-001
   2.0070    0.1827E-001
   2.0170    0.1865E-001
   2.0270    0.1977E-001
   2.0370    0.2143E-001
   2.0470    0.2338E-001
   2.0571    0.2532E-001
   2.0671    0.2701E-001
   2.0771    0.2828E-001
   2.0871    0.2904E-001
   2.0971    0.2929E-001
   2.1071    0.2904E-001
   2.1171    0.2831E-001
   2.1271    0.2713E-001
   2.1371    0.2552E-001
   2.1471    0.2351E-001
   2.1572    0.2120E-001
   2.1672    0.1869E-001
   2.1772    0.1615E-001
   2.1872    0.1375E-001
   2.1972    0.1169E-001
   2.2072    0.1010E-001
   2.2172    0.9097E-002
   2.2272    0.8661E-002
   2.2372    0.8691E-002
   2.2472    0.9005E-002
   2.2573    0.9399E-002
   2.2673    0.9714E-002
   2.2773    0.9875E-002
   2.2873    0.9891E-002
   2.2973    0.9825E-002
   2.3073    0.9742E-002
   2.3173    0.9673E-002
   2.3273    0.9612E-002
   2.3373    0.9536E-002
   2.3473    0.9437E-002
   2.3574    0.9333E-002
   2.3674    0.9269E-002
   2.3774    0.9295E-002
   2.3874    0.9438E-002
   2.3974    0.9685E-002
   2.4074    0.9984E-002
   2.4174    0.1025E-001
   2.4274    0.1042E-001
   2.4374    0.1041E-001
   2.4474    0.1023E-001
   2.4575    0.9868E-002
   2.4675    0.9388E-002
   2.4775    0.8844E-002
   2.4875    0.8288E-002
   2.4975    0.7751E-002
   2.5075    0.7241E-002
   2.5175    0.6750E-002
   2.5275    0.6269E-002
   2.5375    0.5805E-002
   2.5475    0.5388E-002
   2.5576    0.5059E-002
   2.5676    0.4859E-002
   2.5776    0.4812E-002
   2.5876    0.4912E-002
   2.5976    0.5125E-002
   2.6076    0.5386E-002
   2.6176    0.5618E-002
   2.6276    0.5752E-002
   2.6376    0.5757E-002
   2.6476    0.5651E-002
   2.6577    0.5502E-002
   2.6677    0.5408E-002
   2.6777    0.5460E-002
   2.6877    0.5709E-002
   2.6977    0.6142E-002
   2.7077    0.6687E-002
   2.7177    0.7228E-002
   2.7277    0.7639E-002
   2.7377    0.7821E-002
   2.7477    0.7736E-002
   2.7578    0.7418E-002
   2.7678    0.6974E-002
   2.7778    0.6553E-002
   2.7878    0.6310E-002
   2.7978    0.6355E-002
   2.8078    0.6719E-002
   2.8178    0.7341E-002
   2.8278    0.8080E-002
   2.8378    0.8759E-002
   2.8478    0.9215E-002
   2.8579    0.9357E-002
   2.8679    0.9184E-002
   2.8779    0.8776E-002
   2.8879    0.8254E-002
   2.8979    0.7736E-002
   2.9079    0.7301E-002
   2.9179    0.6987E-002
   2.9279    0.6797E-002
   2.9379    0.6721E-002
   2.9479    0.6741E-002
   2.9580    0.6834E-002
   2.9680    0.6963E-002
   2.9780    0.7088E-002
   2.9880    0.7182E-002
   2.9980    0.7243E-002
   3.0080    0.7304E-002
   3.0180    0.7413E-002
   3.0280    0.7611E-002
   3.0380    0.7905E-002
   3.0480    0.8260E-002
   3.0581    0.8605E-002
   3.0681    0.8852E-002
   3.0781    0.8928E-002
   3.0881    0.8787E-002
   3.0981    0.8424E-002
   3.1081    0.7872E-002
   3.1181    0.7200E-002
   3.1281    0.6504E-002
   3.1381    0.5888E-002
   3.1481    0.5451E-002
   3.1582    0.5261E-002
   3.1682    0.5340E-002
   3.1782    0.5654E-002
   3.1882    0.6121E-002
   3.1982    0.6633E-002
   3.2082    0.7085E-002
   3.2182    0.7409E-002
   3.2282    0.7586E-002
   3.2382    0.7648E-002
   3.2482    0.7655E-002
   3.2583    0.7660E-002
   3.2683    0.7683E-002
   3.2783    0.7703E-002
   3.2883    0.7675E-002
   3.2983    0.7564E-002
   3.3083    0.7363E-002
   3.3183    0.7094E-002
   3.3283    0.6793E-002
   3.3383    0.6484E-002
   3.3483    0.6168E-002
   3.3584    0.5827E-002
   3.3684    0.5450E-002
   3.3784    0.5055E-002
   3.3884    0.4701E-002
   3.3984    0.4474E-002
   3.4084    0.4463E-002
   3.4184    0.4731E-002
   3.4284    0.5281E-002
   3.4384    0.6055E-002
   3.4484    0.6931E-002
   3.4585    0.7756E-002
   3.4685    0.8380E-002
   3.4785    0.8688E-002
   3.4885    0.8622E-002
   3.4985    0.8197E-002
   3.5085    0.7488E-002
   3.5185    0.6616E-002
   3.5285    0.5719E-002
   3.5385    0.4923E-002
   3.5485    0.4326E-002
   3.5586    0.3977E-002
   3.5686    0.3882E-002
   3.5786    0.4002E-002
   3.5886    0.4273E-002
   3.5986    0.4621E-002
   3.6086    0.4983E-002
   3.6186    0.5327E-002
   3.6286    0.5650E-002
   3.6386    0.5967E-002
   3.6486    0.6288E-002
   3.6587    0.6599E-002
   3.6687    0.6854E-002
   3.6787    0.6993E-002
   3.6887    0.6962E-002
   3.6987    0.6736E-002
   3.7087    0.6332E-002
   3.7187    0.5798E-002
   3.7287    0.5198E-002
   3.7387    0.4603E-002
   3.7487    0.4081E-002
   3.7588    0.3687E-002
   3.7688    0.3465E-002
   3.7788    0.3436E-002
   3.7888    0.3592E-002
   3.7988    0.3894E-002
   3.8088    0.4279E-002
   3.8188    0.4670E-002
   3.8288    0.4992E-002
   3.8388    0.5191E-002
   3.8488    0.5242E-002
   3.8589    0.5153E-002
   3.8689    0.4956E-002
   3.8789    0.4691E-002
   3.8889    0.4400E-002
   3.8989    0.4115E-002
   3.9089    0.3865E-002
   3.9189    0.3678E-002
   3.9289    0.3580E-002
   3.9389    0.3590E-002
   3.9489    0.3705E-002
   3.9590    0.3897E-002
   3.9690    0.4118E-002
   3.9790    0.4315E-002
   3.9890    0.4453E-002
   3.9990    0.4523E-002
   4.0090    0.4550E-002
   4.0190    0.4566E-002
   4.0290    0.4594E-002
   4.0390    0.4629E-002
   4.0490    0.4639E-002
   4.0591    0.4581E-002
   4.0691    0.4425E-002
   4.0791    0.4175E-002
   4.0891    0.3874E-002
   4.0991    0.3591E-002
   4.1091    0.3403E-002
   4.1191    0.3372E-002
   4.1291    0.3528E-002
   4.1391    0.3856E-002
   4.1491    0.4295E-002
   4.1592    0.4753E-002
   4.1692    0.5126E-002
   4.1792    0.5330E-002
   4.1892    0.5325E-002
   4.1992    0.5120E-002
   4.2092    0.4772E-002
   4.2192    0.4353E-002
   4.2292    0.3934E-002
   4.2392    0.3567E-002
   4.2492    0.3282E-002
   4.2593    0.3100E-002
   4.2693    0.3037E-002
   4.2793    0.3102E-002
   4.2893    0.3297E-002
   4.2993    0.3602E-002
   4.3093    0.3969E-002
   4.3193    0.4327E-002
   4.3293    0.4594E-002
   4.3393    0.4702E-002
   4.3493    0.4611E-002
   4.3594    0.4324E-002
   4.3694    0.3884E-002
   4.3794    0.3364E-002
   4.3894    0.2848E-002
   4.3994    0.2409E-002
   4.4094    0.2098E-002
   4.4194    0.1930E-002
   4.4294    0.1888E-002
   4.4394    0.1936E-002
   4.4494    0.2035E-002
   4.4595    0.2153E-002
   4.4695    0.2272E-002
   4.4795    0.2386E-002
   4.4895    0.2496E-002
   4.4995    0.2596E-002
   4.5095    0.2676E-002
   4.5195    0.2717E-002
   4.5295    0.2703E-002
   4.5395    0.2625E-002
   4.5495    0.2493E-002
   4.5596    0.2334E-002
   4.5696    0.2187E-002
   4.5796    0.2087E-002
   4.5896    0.2052E-002
   4.5996    0.2070E-002
   4.6096    0.2109E-002
   4.6196    0.2123E-002
   4.6296    0.2080E-002
   4.6396    0.1975E-002
   4.6496    0.1833E-002
   4.6597    0.1699E-002
   4.6697    0.1621E-002
   4.6797    0.1633E-002
   4.6897    0.1738E-002
   4.6997    0.1915E-002
   4.7097    0.2123E-002
   4.7197    0.2320E-002
   4.7297    0.2471E-002
   4.7397    0.2555E-002
   4.7497    0.2568E-002
   4.7598    0.2514E-002
   4.7698    0.2408E-002
   4.7798    0.2265E-002
   4.7898    0.2100E-002
   4.7998    0.1931E-002
   4.8098    0.1773E-002
   4.8198    0.1637E-002
   4.8298    0.1529E-002
   4.8398    0.1453E-002
   4.8498    0.1405E-002
   4.8599    0.1379E-002
   4.8699    0.1370E-002
   4.8799    0.1371E-002
   4.8899    0.1377E-002
   4.8999    0.1384E-002
   4.9099    0.1389E-002
   4.9199    0.1390E-002
   4.9299    0.1390E-002
   4.9399    0.1390E-002
   4.9499    0.1394E-002
   4.9600    0.1402E-002
   4.9700    0.1412E-002
   4.9800    0.1417E-002
   4.9900    0.1408E-002
   5.0000    0.1375E-002
